* Measurement data measured by REW V5.20.9
* Source: Frequency Response Averaged data
* Format: Averaged data produced from the rms magnitudes of Jul 11, Jul 11, Jul 11
* Dated: 11/07/2022 9:05:50 PM
* REW Settings:
*  C-weighting compensation: Off
*  Target level: 75.0 dB
* Note: ; Averaged data produced from the rms magnitudes of Jul 11, Jul 11, Jul 11
* Measurement: Andromeda 2020 R
* Smoothing: 1/24 octave
* Frequency Step: 1/48 octave
* Start Frequency: 2.200 Hz
*
* Freq(Hz) SPL(dB)
2.200000 81.892
2.240000 82.016
2.270000 82.110
2.300000 82.203
2.330000 82.296
2.360000 82.389
2.400000 82.513
2.430000 82.606
2.470000 82.730
2.500000 82.823
2.540000 82.948
2.580000 83.079
2.620000 83.228
2.650000 83.345
2.690000 83.507
2.720000 83.630
2.760000 83.795
2.800000 83.957
2.850000 84.151
2.900000 84.329
2.950000 84.487
3.000000 84.626
3.040000 84.727
3.070000 84.798
3.110000 84.888
3.150000 84.974
3.200000 85.081
3.250000 85.188
3.300000 85.302
3.350000 85.418
3.400000 85.534
3.450000 85.650
3.500000 85.765
3.550000 85.879
3.600000 85.993
3.650000 86.106
3.700000 86.217
3.750000 86.327
3.820000 86.480
3.870000 86.588
3.950000 86.761
4.000000 86.869
4.060000 86.999
4.120000 87.131
4.180000 87.264
4.250000 87.417
4.310000 87.547
4.370000 87.674
4.440000 87.819
4.500000 87.943
4.550000 88.045
4.620000 88.184
4.680000 88.298
4.750000 88.423
4.820000 88.538
4.870000 88.617
4.940000 88.721
5.000000 88.803
5.080000 88.901
5.150000 88.976
5.220000 89.041
5.300000 89.102
5.380000 89.152
5.450000 89.184
5.520000 89.206
5.600000 89.217
5.700000 89.213
5.800000 89.192
5.900000 89.159
6.000000 89.108
6.080000 89.057
6.150000 89.010
6.220000 88.962
6.300000 88.906
6.400000 88.828
6.500000 88.751
6.600000 88.683
6.700000 88.622
6.800000 88.566
6.900000 88.521
7.000000 88.487
7.100000 88.467
7.200000 88.456
7.300000 88.454
7.400000 88.459
7.500000 88.473
7.620000 88.496
7.750000 88.523
7.880000 88.553
8.000000 88.581
8.120000 88.604
8.250000 88.626
8.380000 88.645
8.500000 88.658
8.620000 88.668
8.750000 88.677
8.850000 88.683
9.000000 88.691
9.120000 88.697
9.250000 88.706
9.380000 88.715
9.500000 88.726
9.620000 88.740
9.750000 88.756
9.880000 88.775
10.000000 88.795
10.150000 88.823
10.300000 88.853
10.440000 88.882
10.600000 88.917
10.750000 88.951
10.900000 88.984
11.060000 89.017
11.200000 89.045
11.380000 89.076
11.500000 89.094
11.720000 89.122
11.800000 89.129
12.060000 89.147
12.200000 89.154
12.410000 89.160
12.500000 89.163
12.650000 89.168
12.800000 89.176
13.150000 89.209
13.200000 89.216
13.400000 89.251
13.600000 89.293
13.800000 89.343
14.000000 89.396
14.300000 89.478
14.500000 89.530
14.750000 89.589
15.000000 89.640
15.250000 89.684
15.500000 89.724
15.750000 89.761
16.000000 89.796
16.250000 89.829
16.500000 89.857
16.750000 89.878
17.000000 89.891
17.250000 89.894
17.500000 89.887
17.750000 89.871
18.000000 89.849
18.250000 89.823
18.500000 89.799
18.750000 89.779
19.000000 89.769
19.250000 89.770
19.500000 89.782
19.750000 89.806
20.000000 89.836
20.299999 89.875
20.600000 89.913
20.900000 89.943
21.200001 89.965
21.400000 89.977
21.799999 89.999
22.000000 90.012
22.400000 90.042
22.700001 90.066
23.000000 90.086
23.299999 90.098
23.600000 90.104
24.000000 90.109
24.299999 90.121
24.700001 90.155
25.000000 90.191
25.400000 90.239
25.799999 90.267
26.200001 90.264
26.500000 90.249
26.900000 90.224
27.200001 90.210
27.600000 90.201
28.000000 90.193
28.500000 90.171
29.000000 90.148
29.500000 90.151
30.000000 90.182
30.400000 90.204
30.700001 90.212
31.100000 90.219
31.500000 90.247
32.000000 90.343
32.500000 90.478
33.000000 90.560
33.500000 90.531
34.000000 90.420
34.500000 90.316
35.000000 90.281
35.500000 90.300
36.000000 90.319
36.500000 90.317
37.000000 90.304
37.500000 90.292
38.200001 90.261
38.700001 90.232
39.500000 90.238
40.000000 90.284
40.599998 90.329
41.200001 90.319
41.799999 90.274
42.500000 90.242
43.099998 90.254
43.700001 90.284
44.400002 90.312
45.000000 90.320
45.500000 90.314
46.200001 90.297
46.799999 90.284
47.500000 90.268
48.200001 90.248
48.700001 90.242
49.400002 90.256
50.000000 90.268
50.799999 90.248
51.500000 90.217
52.200001 90.208
53.000000 90.218
53.799999 90.218
54.500000 90.211
55.200001 90.206
56.000000 90.201
57.000000 90.193
58.000000 90.190
59.000000 90.188
60.000000 90.181
60.799999 90.174
61.500000 90.166
62.200001 90.158
63.000000 90.149
64.000000 90.142
65.000000 90.139
66.000000 90.137
67.000000 90.132
68.000000 90.118
69.000000 90.099
70.000000 90.078
71.000000 90.054
72.000000 90.034
73.000000 90.030
74.000000 90.037
75.000000 90.042
76.199997 90.046
77.500000 90.031
78.800003 89.986
80.000000 89.931
81.199997 89.847
82.500000 89.789
83.800003 89.795
85.000000 89.858
86.199997 89.953
87.500000 89.997
88.500000 89.945
90.000000 89.738
91.199997 89.566
92.500000 89.490
93.800003 89.517
95.000000 89.604
96.199997 89.730
97.500000 89.818
98.800003 89.750
100.000000 89.749
101.500000 89.831
103.000000 89.807
104.400002 89.753
106.000000 89.696
107.500000 89.688
109.000000 89.707
110.599998 89.674
112.000000 89.613
113.800003 89.602
115.000000 89.612
117.199997 89.598
118.000000 89.602
120.599998 89.616
122.000000 89.606
124.099998 89.596
125.000000 89.594
126.500000 89.591
128.000000 89.576
131.500000 89.477
132.000000 89.466
134.000000 89.447
136.000000 89.422
138.000000 89.419
140.000000 89.449
143.000000 89.516
145.000000 89.556
147.500000 89.602
150.000000 89.627
152.500000 89.598
155.000000 89.551
157.500000 89.502
160.000000 89.460
162.500000 89.422
165.000000 89.392
167.500000 89.374
170.000000 89.375
172.500000 89.402
175.000000 89.453
177.500000 89.510
180.000000 89.550
182.500000 89.563
185.000000 89.554
187.500000 89.526
190.000000 89.487
192.500000 89.445
195.000000 89.401
197.500000 89.358
200.000000 89.322
203.000000 89.281
206.000000 89.245
209.000000 89.214
212.000000 89.179
214.000000 89.154
218.000000 89.108
220.000000 89.084
224.000000 89.036
227.000000 89.000
230.000000 88.966
233.000000 88.932
236.000000 88.900
240.000000 88.860
243.000000 88.829
247.000000 88.783
250.000000 88.750
254.000000 88.712
258.000000 88.674
262.000000 88.633
265.000000 88.604
269.000000 88.568
272.000000 88.540
276.000000 88.503
280.000000 88.467
285.000000 88.424
290.000000 88.381
295.000000 88.338
300.000000 88.295
304.000000 88.259
307.000000 88.232
311.000000 88.198
315.000000 88.165
320.000000 88.125
325.000000 88.083
330.000000 88.039
335.000000 87.996
340.000000 87.954
345.000000 87.912
350.000000 87.870
355.000000 87.830
360.000000 87.790
365.000000 87.750
370.000000 87.709
375.000000 87.670
382.000000 87.614
387.000000 87.574
395.000000 87.511
400.000000 87.472
406.000000 87.425
412.000000 87.378
418.000000 87.331
425.000000 87.278
431.000000 87.233
437.000000 87.188
444.000000 87.130
450.000000 87.080
455.000000 87.046
462.000000 87.002
468.000000 86.962
475.000000 86.914
482.000000 86.867
487.000000 86.833
494.000000 86.786
500.000000 86.744
508.000000 86.690
515.000000 86.645
522.000000 86.597
530.000000 86.543
538.000000 86.493
545.000000 86.450
552.000000 86.407
560.000000 86.357
570.000000 86.296
580.000000 86.238
590.000000 86.180
600.000000 86.121
608.000000 86.075
615.000000 86.039
622.000000 86.005
630.000000 85.964
640.000000 85.913
650.000000 85.861
660.000000 85.818
670.000000 85.779
680.000000 85.741
690.000000 85.703
700.000000 85.667
710.000000 85.633
720.000000 85.602
730.000000 85.577
740.000000 85.558
750.000000 85.532
762.000000 85.502
775.000000 85.478
788.000000 85.462
800.000000 85.454
812.000000 85.449
825.000000 85.446
838.000000 85.446
850.000000 85.455
862.000000 85.475
875.000000 85.500
885.000000 85.517
900.000000 85.549
912.000000 85.577
925.000000 85.614
938.000000 85.660
950.000000 85.702
962.000000 85.742
975.000000 85.790
988.000000 85.844
1000.000000 85.895
1015.000000 85.959
1030.000000 86.022
1044.000000 86.082
1060.000000 86.155
1075.000000 86.224
1090.000000 86.292
1106.000000 86.364
1120.000000 86.426
1138.000000 86.505
1150.000000 86.558
1172.000000 86.655
1180.000000 86.691
1206.000000 86.806
1220.000000 86.868
1241.000000 86.957
1250.000000 86.995
1265.000000 87.058
1280.000000 87.122
1315.000000 87.273
1320.000000 87.294
1340.000000 87.382
1360.000000 87.471
1380.000000 87.563
1400.000000 87.659
1430.000000 87.803
1450.000000 87.903
1475.000000 88.034
1500.000000 88.168
1525.000000 88.303
1550.000000 88.441
1575.000000 88.582
1600.000000 88.725
1625.000000 88.870
1650.000000 89.013
1675.000000 89.151
1700.000000 89.285
1725.000000 89.410
1750.000000 89.527
1775.000000 89.632
1800.000000 89.722
1825.000000 89.800
1850.000000 89.865
1875.000000 89.919
1900.000000 89.964
1925.000000 90.006
1950.000000 90.056
1975.000000 90.121
2000.000000 90.199
2030.000000 90.291
2060.000000 90.362
2090.000000 90.405
2120.000000 90.421
2140.000000 90.419
2180.000000 90.383
2200.000000 90.348
2240.000000 90.250
2270.000000 90.163
2300.000000 90.072
2330.000000 89.982
2360.000000 89.889
2400.000000 89.756
2430.000000 89.647
2470.000000 89.492
2500.000000 89.376
2540.000000 89.242
2580.000000 89.146
2620.000000 89.101
2650.000000 89.107
2690.000000 89.166
2720.000000 89.236
2760.000000 89.339
2800.000000 89.425
2850.000000 89.498
2900.000000 89.540
2950.000000 89.572
3000.000000 89.604
3040.000000 89.635
3070.000000 89.662
3110.000000 89.704
3150.000000 89.752
3200.000000 89.822
3250.000000 89.899
3300.000000 89.979
3350.000000 90.054
3400.000000 90.121
3450.000000 90.177
3500.000000 90.218
3550.000000 90.238
3600.000000 90.235
3650.000000 90.203
3700.000000 90.140
3750.000000 90.045
3820.000000 89.875
3870.000000 89.751
3950.000000 89.606
4000.000000 89.580
4060.000000 89.647
4120.000000 89.831
4180.000000 90.117
4250.000000 90.517
4310.000000 90.846
4370.000000 91.091
4440.000000 91.195
4500.000000 91.098
4550.000000 90.894
4620.000000 90.480
4680.000000 90.076
4750.000000 89.627
4820.000000 89.248
4870.000000 89.030
4940.000000 88.798
5000.000000 88.666
5080.000000 88.579
5150.000000 88.577
5220.000000 88.631
5300.000000 88.746
5380.000000 88.923
5450.000000 89.120
5520.000000 89.335
5600.000000 89.580
5700.000000 89.907
5800.000000 90.324
5900.000000 90.857
6000.000000 91.463
6080.000000 91.935
6150.000000 92.284
6220.000000 92.527
6300.000000 92.632
6400.000000 92.476
6500.000000 92.047
6600.000000 91.463
6700.000000 90.857
6800.000000 90.334
6900.000000 89.940
7000.000000 89.685
7100.000000 89.563
7200.000000 89.573
7300.000000 89.713
7400.000000 89.977
7500.000000 90.358
7620.000000 90.969
7750.000000 91.833
7880.000000 92.795
8000.000000 93.526
8120.000000 93.840
8250.000000 93.544
8380.000000 92.641
8500.000000 91.428
8620.000000 90.002
8750.000000 88.369
8850.000000 87.138
9000.000000 85.441
9120.000000 84.253
9250.000000 83.139
9380.000000 82.190
9500.000000 81.441
9620.000000 80.799
9750.000000 80.209
9880.000000 79.718
10000.000000 79.341
10150.000000 78.959
10300.000000 78.655
10440.000000 78.423
10600.000000 78.209
10750.000000 78.051
10900.000000 77.917
11060.000000 77.793
11200.000000 77.699
11380.000000 77.577
11500.000000 77.478
11720.000000 77.316
11800.000000 77.302
12060.000000 77.452
12200.000000 77.609
12410.000000 77.917
12500.000000 78.064
12650.000000 78.306
12800.000000 78.512
13150.000000 78.749
13200.000000 78.756
13400.000000 78.767
13600.000000 78.821
13800.000000 79.022
14000.000000 79.475
14300.000000 80.855
14500.000000 82.357
14750.000000 84.636
15000.000000 86.340
15250.000000 86.296
15500.000000 84.402
15750.000000 81.653
16000.000000 78.921
16250.000000 76.309
16500.000000 73.692
16750.000000 71.180
17000.000000 68.925
17250.000000 66.934
17500.000000 65.177
17750.000000 63.659
18000.000000 62.364
18250.000000 61.275
18500.000000 60.365
18750.000000 59.603
19000.000000 58.970
19250.000000 58.436
19500.000000 57.867
19750.000000 57.149
