* Measurement data measured by REW V5.20.9
* Source: Frequency Response Averaged data
* Format: Averaged data produced from the rms magnitudes of Jul 11, Jul 11, Jul 11, Jul 11, Jul 11
* Dated: 11/07/2022 9:12:58 PM
* REW Settings:
*  C-weighting compensation: Off
*  Target level: 75.0 dB
* Note: ; Averaged data produced from the rms magnitudes of Jul 11, Jul 11, Jul 11, Jul 11, Jul 11
* Measurement: Andromeda 2020 L
* Smoothing: 1/24 octave
* Frequency Step: 1/48 octave
* Start Frequency: 2.200 Hz
*
* Freq(Hz) SPL(dB)
2.200000 81.422
2.240000 81.558
2.270000 81.660
2.300000 81.762
2.330000 81.865
2.360000 81.967
2.400000 82.103
2.430000 82.206
2.470000 82.342
2.500000 82.444
2.540000 82.581
2.580000 82.729
2.620000 82.904
2.650000 83.044
2.690000 83.238
2.720000 83.387
2.760000 83.586
2.800000 83.784
2.850000 84.023
2.900000 84.245
2.950000 84.443
3.000000 84.626
3.040000 84.763
3.070000 84.861
3.110000 84.987
3.150000 85.107
3.200000 85.251
3.250000 85.390
3.300000 85.525
3.350000 85.656
3.400000 85.782
3.450000 85.901
3.500000 86.014
3.550000 86.120
3.600000 86.219
3.650000 86.311
3.700000 86.395
3.750000 86.470
3.820000 86.562
3.870000 86.620
3.950000 86.705
4.000000 86.754
4.060000 86.809
4.120000 86.857
4.180000 86.898
4.250000 86.941
4.310000 86.976
4.370000 87.012
4.440000 87.057
4.500000 87.093
4.550000 87.123
4.620000 87.164
4.680000 87.202
4.750000 87.248
4.820000 87.299
4.870000 87.337
4.940000 87.392
5.000000 87.441
5.080000 87.507
5.150000 87.566
5.220000 87.628
5.300000 87.701
5.380000 87.773
5.450000 87.833
5.520000 87.887
5.600000 87.945
5.700000 88.013
5.800000 88.069
5.900000 88.112
6.000000 88.141
6.080000 88.155
6.150000 88.162
6.220000 88.164
6.300000 88.157
6.400000 88.137
6.500000 88.109
6.600000 88.079
6.700000 88.044
6.800000 88.005
6.900000 87.969
7.000000 87.942
7.100000 87.920
7.200000 87.905
7.300000 87.901
7.400000 87.910
7.500000 87.930
7.620000 87.967
7.750000 88.017
7.880000 88.083
8.000000 88.148
8.120000 88.209
8.250000 88.277
8.380000 88.338
8.500000 88.383
8.620000 88.419
8.750000 88.448
8.850000 88.462
9.000000 88.468
9.120000 88.466
9.250000 88.461
9.380000 88.450
9.500000 88.442
9.620000 88.439
9.750000 88.440
9.880000 88.449
10.000000 88.469
10.150000 88.504
10.300000 88.550
10.440000 88.603
10.600000 88.669
10.750000 88.731
10.900000 88.792
11.060000 88.848
11.200000 88.889
11.380000 88.928
11.500000 88.943
11.720000 88.956
11.800000 88.956
12.060000 88.940
12.200000 88.928
12.410000 88.907
12.500000 88.899
12.650000 88.889
12.800000 88.882
13.150000 88.884
13.200000 88.886
13.400000 88.899
13.600000 88.916
13.800000 88.935
14.000000 88.954
14.300000 88.981
14.500000 88.995
14.750000 89.012
15.000000 89.026
15.250000 89.041
15.500000 89.057
15.750000 89.076
16.000000 89.096
16.250000 89.116
16.500000 89.132
16.750000 89.142
17.000000 89.144
17.250000 89.140
17.500000 89.131
17.750000 89.125
18.000000 89.124
18.250000 89.133
18.500000 89.151
18.750000 89.174
19.000000 89.199
19.250000 89.217
19.500000 89.226
19.750000 89.225
20.000000 89.217
20.299999 89.207
20.600000 89.208
20.900000 89.223
21.200001 89.251
21.400000 89.270
21.799999 89.298
22.000000 89.303
22.400000 89.298
22.700001 89.294
23.000000 89.301
23.299999 89.317
23.600000 89.333
24.000000 89.331
24.299999 89.308
24.700001 89.271
25.000000 89.277
25.400000 89.370
25.799999 89.559
26.200001 89.775
26.500000 89.898
26.900000 89.963
27.200001 89.929
27.600000 89.801
28.000000 89.643
28.500000 89.507
29.000000 89.484
29.500000 89.533
30.000000 89.580
30.400000 89.574
30.700001 89.536
31.100000 89.464
31.500000 89.424
32.000000 89.517
32.500000 89.756
33.000000 89.962
33.500000 89.967
34.000000 89.773
34.500000 89.551
35.000000 89.470
35.500000 89.541
36.000000 89.636
36.500000 89.651
37.000000 89.562
37.500000 89.426
38.200001 89.335
38.700001 89.411
39.500000 89.607
40.000000 89.636
40.599998 89.566
41.200001 89.485
41.799999 89.451
42.500000 89.423
43.099998 89.399
43.700001 89.422
44.400002 89.483
45.000000 89.482
45.500000 89.448
46.200001 89.443
46.799999 89.513
47.500000 89.593
48.200001 89.605
48.700001 89.582
49.400002 89.529
50.000000 89.489
50.799999 89.474
51.500000 89.475
52.200001 89.451
53.000000 89.418
53.799999 89.430
54.500000 89.454
55.200001 89.462
56.000000 89.459
57.000000 89.456
58.000000 89.449
59.000000 89.441
60.000000 89.436
60.799999 89.428
61.500000 89.419
62.200001 89.416
63.000000 89.419
64.000000 89.420
65.000000 89.416
66.000000 89.404
67.000000 89.396
68.000000 89.395
69.000000 89.395
70.000000 89.393
71.000000 89.385
72.000000 89.384
73.000000 89.395
74.000000 89.410
75.000000 89.425
76.199997 89.408
77.500000 89.381
78.800003 89.385
80.000000 89.357
81.199997 89.301
82.500000 89.267
83.800003 89.278
85.000000 89.271
86.199997 89.242
87.500000 89.249
88.500000 89.269
90.000000 89.275
91.199997 89.295
92.500000 89.307
93.800003 89.270
95.000000 89.241
96.199997 89.230
97.500000 89.234
98.800003 89.198
100.000000 89.128
101.500000 89.159
103.000000 89.274
104.400002 89.328
106.000000 89.307
107.500000 89.269
109.000000 89.243
110.599998 89.233
112.000000 89.227
113.800003 89.236
115.000000 89.250
117.199997 89.269
118.000000 89.268
120.599998 89.219
122.000000 89.232
124.099998 89.299
125.000000 89.320
126.500000 89.327
128.000000 89.323
131.500000 89.382
132.000000 89.395
134.000000 89.381
136.000000 89.296
138.000000 89.248
140.000000 89.237
143.000000 89.208
145.000000 89.171
147.500000 89.119
150.000000 89.082
152.500000 89.082
155.000000 89.089
157.500000 89.094
160.000000 89.099
162.500000 89.090
165.000000 89.070
167.500000 89.054
170.000000 89.041
172.500000 89.025
175.000000 89.003
177.500000 88.978
180.000000 88.959
182.500000 88.950
185.000000 88.947
187.500000 88.941
190.000000 88.929
192.500000 88.909
195.000000 88.883
197.500000 88.858
200.000000 88.837
203.000000 88.820
206.000000 88.819
209.000000 88.830
212.000000 88.840
214.000000 88.842
218.000000 88.837
220.000000 88.831
224.000000 88.811
227.000000 88.790
230.000000 88.764
233.000000 88.735
236.000000 88.701
240.000000 88.656
243.000000 88.624
247.000000 88.579
250.000000 88.546
254.000000 88.508
258.000000 88.473
262.000000 88.436
265.000000 88.406
269.000000 88.369
272.000000 88.342
276.000000 88.307
280.000000 88.271
285.000000 88.225
290.000000 88.181
295.000000 88.137
300.000000 88.096
304.000000 88.065
307.000000 88.044
311.000000 88.017
315.000000 87.989
320.000000 87.955
325.000000 87.918
330.000000 87.876
335.000000 87.833
340.000000 87.792
345.000000 87.753
350.000000 87.713
355.000000 87.671
360.000000 87.628
365.000000 87.586
370.000000 87.544
375.000000 87.502
382.000000 87.444
387.000000 87.405
395.000000 87.343
400.000000 87.304
406.000000 87.257
412.000000 87.210
418.000000 87.163
425.000000 87.110
431.000000 87.063
437.000000 87.019
444.000000 86.971
450.000000 86.931
455.000000 86.891
462.000000 86.835
468.000000 86.791
475.000000 86.740
482.000000 86.690
487.000000 86.654
494.000000 86.606
500.000000 86.564
508.000000 86.508
515.000000 86.461
522.000000 86.414
530.000000 86.362
538.000000 86.309
545.000000 86.263
552.000000 86.219
560.000000 86.173
570.000000 86.112
580.000000 86.053
590.000000 85.997
600.000000 85.941
608.000000 85.898
615.000000 85.861
622.000000 85.823
630.000000 85.783
640.000000 85.736
650.000000 85.691
660.000000 85.645
670.000000 85.603
680.000000 85.564
690.000000 85.527
700.000000 85.492
710.000000 85.460
720.000000 85.432
730.000000 85.407
740.000000 85.384
750.000000 85.364
762.000000 85.344
775.000000 85.328
788.000000 85.317
800.000000 85.313
812.000000 85.312
825.000000 85.318
838.000000 85.330
850.000000 85.344
862.000000 85.366
875.000000 85.395
885.000000 85.422
900.000000 85.467
912.000000 85.507
925.000000 85.554
938.000000 85.606
950.000000 85.659
962.000000 85.715
975.000000 85.779
988.000000 85.844
1000.000000 85.906
1015.000000 85.987
1030.000000 86.072
1044.000000 86.153
1060.000000 86.245
1075.000000 86.332
1090.000000 86.419
1106.000000 86.511
1120.000000 86.590
1138.000000 86.691
1150.000000 86.759
1172.000000 86.881
1180.000000 86.926
1206.000000 87.078
1220.000000 87.163
1241.000000 87.296
1250.000000 87.354
1265.000000 87.449
1280.000000 87.541
1315.000000 87.753
1320.000000 87.784
1340.000000 87.909
1360.000000 88.036
1380.000000 88.163
1400.000000 88.291
1430.000000 88.491
1450.000000 88.628
1475.000000 88.800
1500.000000 88.978
1525.000000 89.161
1550.000000 89.351
1575.000000 89.544
1600.000000 89.740
1625.000000 89.939
1650.000000 90.137
1675.000000 90.332
1700.000000 90.523
1725.000000 90.706
1750.000000 90.880
1775.000000 91.043
1800.000000 91.192
1825.000000 91.325
1850.000000 91.438
1875.000000 91.530
1900.000000 91.598
1925.000000 91.642
1950.000000 91.660
1975.000000 91.652
2000.000000 91.619
2030.000000 91.549
2060.000000 91.450
2090.000000 91.327
2120.000000 91.186
2140.000000 91.082
2180.000000 90.861
2200.000000 90.747
2240.000000 90.513
2270.000000 90.333
2300.000000 90.148
2330.000000 89.960
2360.000000 89.770
2400.000000 89.526
2430.000000 89.357
2470.000000 89.165
2500.000000 89.053
2540.000000 88.950
2580.000000 88.894
2620.000000 88.868
2650.000000 88.860
2690.000000 88.857
2720.000000 88.858
2760.000000 88.862
2800.000000 88.873
2850.000000 88.900
2900.000000 88.942
2950.000000 88.995
3000.000000 89.055
3040.000000 89.108
3070.000000 89.153
3110.000000 89.219
3150.000000 89.291
3200.000000 89.390
3250.000000 89.492
3300.000000 89.593
3350.000000 89.693
3400.000000 89.795
3450.000000 89.896
3500.000000 89.993
3550.000000 90.077
3600.000000 90.135
3650.000000 90.155
3700.000000 90.130
3750.000000 90.060
3820.000000 89.904
3870.000000 89.780
3950.000000 89.631
4000.000000 89.606
4060.000000 89.670
4120.000000 89.837
4180.000000 90.078
4250.000000 90.366
4310.000000 90.533
4370.000000 90.554
4440.000000 90.368
4500.000000 90.059
4550.000000 89.740
4620.000000 89.264
4680.000000 88.862
4750.000000 88.421
4820.000000 88.018
4870.000000 87.759
4940.000000 87.444
5000.000000 87.226
5080.000000 87.015
5150.000000 86.909
5220.000000 86.877
5300.000000 86.927
5380.000000 87.060
5450.000000 87.228
5520.000000 87.421
5600.000000 87.642
5700.000000 87.890
5800.000000 88.121
5900.000000 88.407
6000.000000 88.807
6080.000000 89.214
6150.000000 89.609
6220.000000 90.009
6300.000000 90.423
6400.000000 90.792
6500.000000 90.912
6600.000000 90.745
6700.000000 90.325
6800.000000 89.736
6900.000000 89.083
7000.000000 88.466
7100.000000 87.950
7200.000000 87.555
7300.000000 87.270
7400.000000 87.071
7500.000000 86.942
7620.000000 86.893
7750.000000 87.035
7880.000000 87.434
8000.000000 87.994
8120.000000 88.657
8250.000000 89.384
8380.000000 90.077
8500.000000 90.726
8620.000000 91.402
8750.000000 92.034
8850.000000 92.305
9000.000000 92.212
9120.000000 91.756
9250.000000 91.036
9380.000000 90.155
9500.000000 89.161
9620.000000 87.998
9750.000000 86.663
9880.000000 85.387
10000.000000 84.330
10150.000000 83.193
10300.000000 82.248
10440.000000 81.498
10600.000000 80.758
10750.000000 80.152
10900.000000 79.617
11060.000000 79.112
11200.000000 78.723
11380.000000 78.288
11500.000000 78.036
11720.000000 77.664
11800.000000 77.568
12060.000000 77.457
12200.000000 77.510
12410.000000 77.680
12500.000000 77.773
12650.000000 77.933
12800.000000 78.072
13150.000000 78.111
13200.000000 78.071
13400.000000 77.798
13600.000000 77.377
13800.000000 76.883
14000.000000 76.409
14300.000000 75.954
14500.000000 75.944
14750.000000 76.306
15000.000000 77.025
15250.000000 78.027
15500.000000 79.285
15750.000000 80.681
16000.000000 81.844
16250.000000 82.275
16500.000000 81.720
16750.000000 80.359
17000.000000 78.617
17250.000000 76.833
17500.000000 75.140
17750.000000 73.531
18000.000000 71.943
18250.000000 70.298
18500.000000 68.542
18750.000000 66.673
19000.000000 64.759
19250.000000 62.880
19500.000000 61.004
19750.000000 59.136
