* Measurement data measured by REW V5.20.9
* Source: Input device not selected, no input selected, L, volume: no control. Timing signal peak level -31.3 dBFS, measurement signal peak level -27.5 dBFS
* Format: 256k Log Swept Sine, 1 sweep at -12.0 dBFS using an acoustic timing reference
* Dated: 20/05/2024 8:38:37 PM
* REW Settings:
*  C-weighting compensation: Off
*  Target level: 75.0 dB
* Note: ; Delay -0.0352 ms (-12 mm, -0.47 in) using estimated IR delay relative to Acoustic reference on  L with no timing offset
* Measurement: Annihilator 2023 L
* Smoothing: 1/24 octave
* Frequency Step: 1/48 octave
* Start Frequency: 1.000 Hz
*
* Freq(Hz) SPL(dB) Phase(degrees)
1.000000 44.525 110.5774
1.015000 44.703 109.3845
1.030000 44.880 108.2208
1.044000 45.045 107.1645
1.060000 45.232 105.9968
1.075000 45.405 104.9446
1.090000 45.577 103.9375
1.106000 45.758 102.9157
1.120000 45.917 102.0581
1.138000 46.121 100.9998
1.150000 46.258 100.3201
1.172000 46.509 99.1232
1.180000 46.601 98.7026
1.206000 46.899 97.3837
1.220000 47.060 96.7008
1.241000 47.301 95.7071
1.250000 47.404 95.2911
1.265000 47.576 94.6090
1.280000 47.749 93.9389
1.315000 48.149 92.4090
1.320000 48.207 92.1930
1.340000 48.435 91.3318
1.360000 48.662 90.4710
1.380000 48.888 89.6050
1.400000 49.113 88.7282
1.430000 49.448 87.3805
1.450000 49.670 86.4523
1.475000 49.944 85.2514
1.500000 50.218 84.0253
1.525000 50.491 82.7834
1.550000 50.763 81.5301
1.575000 51.034 80.2697
1.600000 51.304 79.0068
1.625000 51.572 77.7455
1.650000 51.839 76.4902
1.675000 52.104 75.2454
1.700000 52.367 74.0154
1.725000 52.627 72.8046
1.750000 52.886 71.6172
1.775000 53.142 70.4578
1.800000 53.395 69.3306
1.825000 53.645 68.2401
1.850000 53.893 67.1881
1.875000 54.138 66.1694
1.900000 54.381 65.1809
1.925000 54.622 64.2196
1.950000 54.860 63.2823
1.975000 55.097 62.3662
2.000000 55.331 61.4682
2.030000 55.608 60.4102
2.060000 55.883 59.3687
2.090000 56.155 58.3384
2.120000 56.424 57.3143
2.140000 56.601 56.6323
2.180000 56.952 55.2633
2.200000 57.126 54.5733
2.240000 57.468 53.1974
2.270000 57.721 52.1748
2.300000 57.971 51.1606
2.330000 58.218 50.1549
2.360000 58.462 49.1579
2.400000 58.782 47.8425
2.430000 59.019 46.8666
2.470000 59.331 45.5801
2.500000 59.562 44.6265
2.540000 59.866 43.3704
2.580000 60.165 42.1322
2.620000 60.460 40.9111
2.650000 60.677 40.0063
2.690000 60.963 38.8148
2.720000 61.174 37.9321
2.760000 61.451 36.7700
2.800000 61.724 35.6247
2.850000 62.060 34.2166
2.900000 62.390 32.8347
2.950000 62.715 31.4800
3.000000 63.032 30.1610
3.040000 63.282 29.1294
3.070000 63.466 28.3675
3.110000 63.708 27.3649
3.150000 63.947 26.3745
3.200000 64.241 25.1490
3.250000 64.530 23.9318
3.300000 64.814 22.7168
3.350000 65.093 21.5037
3.400000 65.367 20.2972
3.450000 65.635 19.1009
3.500000 65.899 17.9183
3.550000 66.157 16.7529
3.600000 66.412 15.6080
3.650000 66.663 14.4872
3.700000 66.910 13.3943
3.750000 67.153 12.3293
3.820000 67.485 10.8760
3.870000 67.718 9.8585
3.950000 68.082 8.2531
4.000000 68.305 7.2564
4.060000 68.569 6.0608
4.120000 68.828 4.8716
4.180000 69.081 3.6928
4.250000 69.371 2.3348
4.310000 69.615 1.1892
4.370000 69.854 0.0639
4.440000 70.129 -1.2194
4.500000 70.359 -2.2942
4.550000 70.548 -3.1749
4.620000 70.808 -4.3896
4.680000 71.026 -5.4179
4.750000 71.277 -6.6080
4.820000 71.523 -7.7898
4.870000 71.695 -8.6258
4.940000 71.933 -9.7841
5.000000 72.132 -10.7651
5.080000 72.394 -12.0550
5.150000 72.618 -13.1656
5.220000 72.838 -14.2585
5.300000 73.084 -15.4874
5.380000 73.325 -16.6972
5.450000 73.531 -17.7421
5.520000 73.734 -18.7756
5.600000 73.961 -19.9407
5.700000 74.238 -21.3732
5.800000 74.508 -22.7808
5.900000 74.772 -24.1648
6.000000 75.028 -25.5244
6.080000 75.229 -26.5946
6.150000 75.401 -27.5186
6.220000 75.571 -28.4312
6.300000 75.761 -29.4594
6.400000 75.994 -30.7222
6.500000 76.221 -31.9633
6.600000 76.443 -33.1858
6.700000 76.660 -34.3893
6.800000 76.873 -35.5732
6.900000 77.081 -36.7386
7.000000 77.284 -37.8864
7.100000 77.484 -39.0147
7.200000 77.679 -40.1257
7.300000 77.870 -41.2227
7.400000 78.058 -42.3071
7.500000 78.242 -43.3770
7.620000 78.457 -44.6435
7.750000 78.685 -45.9962
7.880000 78.907 -47.3275
8.000000 79.106 -48.5391
8.120000 79.301 -49.7360
8.250000 79.506 -51.0153
8.380000 79.706 -52.2764
8.500000 79.886 -53.4247
8.620000 80.061 -54.5577
8.750000 80.245 -55.7676
8.850000 80.384 -56.6857
9.000000 80.587 -58.0425
9.120000 80.745 -59.1107
9.250000 80.912 -60.2507
9.380000 81.075 -61.3727
9.500000 81.222 -62.3937
9.620000 81.366 -63.4007
9.750000 81.518 -64.4756
9.880000 81.667 -65.5366
10.000000 81.803 -66.5041
10.150000 81.968 -67.6974
10.300000 82.129 -68.8761
10.440000 82.276 -69.9627
10.600000 82.440 -71.1902
10.750000 82.590 -72.3286
10.900000 82.736 -73.4544
11.060000 82.887 -74.6416
11.200000 83.016 -75.6688
11.380000 83.178 -76.9726
11.500000 83.282 -77.8310
11.720000 83.468 -79.3818
11.800000 83.534 -79.9379
12.060000 83.742 -81.7172
12.200000 83.851 -82.6577
12.410000 84.010 -84.0463
12.500000 84.076 -84.6341
12.650000 84.186 -85.6035
12.800000 84.293 -86.5618
13.150000 84.534 -88.7587
13.200000 84.568 -89.0684
13.400000 84.699 -90.2973
13.600000 84.827 -91.5098
13.800000 84.950 -92.7063
14.000000 85.070 -93.8848
14.300000 85.243 -95.6181
14.500000 85.353 -96.7489
14.750000 85.488 -98.1351
15.000000 85.618 -99.4917
15.250000 85.744 -100.8219
15.500000 85.867 -102.1298
15.750000 85.987 -103.4180
16.000000 86.104 -104.6903
16.250000 86.216 -105.9475
16.500000 86.325 -107.1894
16.750000 86.430 -108.4150
17.000000 86.530 -109.6219
17.250000 86.627 -110.8093
17.500000 86.720 -111.9761
17.750000 86.811 -113.1233
18.000000 86.899 -114.2525
18.250000 86.984 -115.3654
18.500000 87.067 -116.4648
18.750000 87.147 -117.5515
19.000000 87.225 -118.6263
19.250000 87.300 -119.6885
19.500000 87.372 -120.7368
19.750000 87.441 -121.7703
20.000000 87.508 -122.7877
20.299999 87.586 -123.9875
20.600000 87.661 -125.1656
20.900000 87.734 -126.3244
21.200001 87.805 -127.4666
21.400000 87.851 -128.2200
21.799999 87.939 -129.7078
22.000000 87.982 -130.4422
22.400000 88.065 -131.8916
22.700001 88.124 -132.9611
23.000000 88.181 -134.0159
23.299999 88.236 -135.0563
23.600000 88.288 -136.0821
24.000000 88.355 -137.4263
24.299999 88.403 -138.4158
24.700001 88.465 -139.7109
25.000000 88.510 -140.6664
25.400000 88.569 -141.9247
25.799999 88.625 -143.1710
26.200001 88.677 -144.4064
26.500000 88.714 -145.3229
26.900000 88.760 -146.5258
27.200001 88.792 -147.4106
27.600000 88.833 -148.5671
28.000000 88.872 -149.7022
28.500000 88.920 -151.1002
29.000000 88.964 -152.4775
29.500000 89.005 -153.8274
30.000000 89.043 -155.1441
30.400000 89.072 -156.1763
30.700001 89.094 -156.9415
31.100000 89.122 -157.9538
31.500000 89.149 -158.9579
32.000000 89.180 -160.1987
32.500000 89.207 -161.4178
33.000000 89.232 -162.6122
33.500000 89.254 -163.7827
34.000000 89.276 -164.9335
34.500000 89.295 -166.0687
35.000000 89.312 -167.1897
35.500000 89.328 -168.2956
36.000000 89.341 -169.3846
36.500000 89.354 -170.4578
37.000000 89.365 -171.5176
37.500000 89.374 -172.5637
38.200001 89.386 -174.0013
38.700001 89.395 -175.0123
39.500000 89.406 -176.6194
40.000000 89.410 -177.6121
40.599998 89.412 -178.7737
41.200001 89.413 -179.9006
41.799999 89.415 178.9901
42.500000 89.413 177.7093
43.099998 89.409 176.6350
43.700001 89.403 175.5843
44.400002 89.396 174.3770
45.000000 89.389 173.3530
45.500000 89.383 172.5029
46.200001 89.373 171.3102
46.799999 89.363 170.2951
47.500000 89.352 169.1295
48.200001 89.343 167.9432
48.700001 89.332 167.0728
49.400002 89.303 165.8989
50.000000 89.274 165.0127
50.799999 89.254 163.9444
51.500000 89.252 162.9699
52.200001 89.245 161.9439
53.000000 89.230 160.7923
53.799999 89.212 159.6673
54.500000 89.193 158.6861
55.200001 89.170 157.7217
56.000000 89.141 156.6453
57.000000 89.105 155.3215
58.000000 89.069 154.0063
59.000000 89.033 152.7039
60.000000 88.997 151.4262
60.799999 88.968 150.4147
61.500000 88.942 149.5445
62.200001 88.916 148.6913
63.000000 88.885 147.7306
64.000000 88.844 146.5579
65.000000 88.805 145.4130
66.000000 88.764 144.2722
67.000000 88.722 143.1474
68.000000 88.681 142.0376
69.000000 88.639 140.9367
70.000000 88.596 139.8528
71.000000 88.553 138.7887
72.000000 88.509 137.7458
73.000000 88.466 136.7193
74.000000 88.421 135.7066
75.000000 88.376 134.7082
76.199997 88.322 133.5252
77.500000 88.263 132.2617
78.800003 88.205 131.0170
80.000000 88.150 129.8903
81.199997 88.096 128.7858
82.500000 88.036 127.6077
83.800003 87.976 126.4543
85.000000 87.920 125.4103
86.199997 87.864 124.3773
87.500000 87.804 123.2721
88.500000 87.757 122.4355
90.000000 87.687 121.2025
91.199997 87.632 120.2321
92.500000 87.572 119.1932
93.800003 87.512 118.1667
95.000000 87.457 117.2337
96.199997 87.401 116.3161
97.500000 87.341 115.3365
98.800003 87.282 114.3666
100.000000 87.227 113.4811
101.500000 87.158 112.3933
103.000000 87.090 111.3263
104.400002 87.026 110.3431
106.000000 86.953 109.2334
107.500000 86.885 108.2121
109.000000 86.817 107.2102
110.599998 86.746 106.1609
112.000000 86.684 105.2530
113.800003 86.605 104.0974
115.000000 86.551 103.3386
117.199997 86.454 101.9731
118.000000 86.419 101.4839
120.599998 86.306 99.9203
122.000000 86.246 99.0961
124.099998 86.154 97.8838
125.000000 86.115 97.3696
126.500000 86.050 96.5160
128.000000 85.987 95.6667
131.500000 85.840 93.7334
132.000000 85.819 93.4635
134.000000 85.735 92.3996
136.000000 85.652 91.3618
138.000000 85.569 90.3451
140.000000 85.487 89.3441
143.000000 85.362 87.8562
145.000000 85.282 86.8604
147.500000 85.191 85.6116
150.000000 85.094 84.3822
152.500000 84.984 83.3095
155.000000 84.881 82.2669
157.500000 84.780 81.1732
160.000000 84.681 80.0883
162.500000 84.583 79.0393
165.000000 84.484 78.0150
167.500000 84.384 77.0011
170.000000 84.287 76.0123
172.500000 84.189 75.0582
175.000000 84.090 74.1253
177.500000 83.991 73.2039
180.000000 83.894 72.2997
182.500000 83.798 71.4178
185.000000 83.701 70.5564
187.500000 83.602 69.7152
190.000000 83.504 68.8995
192.500000 83.407 68.1116
195.000000 83.311 67.3454
197.500000 83.214 66.6009
200.000000 83.117 65.8757
203.000000 83.000 65.0270
206.000000 82.883 64.2153
209.000000 82.768 63.4389
212.000000 82.654 62.6902
214.000000 82.577 62.2099
218.000000 82.424 61.3063
220.000000 82.347 60.8762
224.000000 82.195 60.0515
227.000000 82.083 59.4760
230.000000 81.972 58.9433
233.000000 81.862 58.4501
236.000000 81.753 57.9948
240.000000 81.612 57.4410
243.000000 81.511 57.0621
247.000000 81.373 56.6317
250.000000 81.274 56.3554
254.000000 81.159 55.9843
258.000000 81.049 55.6694
262.000000 80.944 55.4175
265.000000 80.872 55.2507
269.000000 80.777 55.0729
272.000000 80.709 54.9688
276.000000 80.628 54.8426
280.000000 80.554 54.7387
285.000000 80.474 54.6281
290.000000 80.412 54.5087
295.000000 80.361 54.3893
300.000000 80.320 54.2613
304.000000 80.293 54.1458
307.000000 80.275 54.0485
311.000000 80.255 53.9074
315.000000 80.237 53.7620
320.000000 80.223 53.5684
325.000000 80.215 53.3372
330.000000 80.208 53.0735
335.000000 80.201 52.7768
340.000000 80.195 52.4626
345.000000 80.187 52.1269
350.000000 80.181 51.7753
355.000000 80.176 51.4417
360.000000 80.169 51.0926
365.000000 80.161 50.7258
370.000000 80.153 50.3609
375.000000 80.143 50.0086
382.000000 80.130 49.4996
387.000000 80.120 49.1225
395.000000 80.101 48.5377
400.000000 80.088 48.1826
406.000000 80.071 47.7527
412.000000 80.052 47.3239
418.000000 80.030 46.8952
425.000000 80.004 46.4096
431.000000 79.979 46.0150
437.000000 79.953 45.6383
444.000000 79.921 45.2346
450.000000 79.891 44.9084
455.000000 79.866 44.6190
462.000000 79.830 44.2281
468.000000 79.799 43.9179
475.000000 79.761 43.5835
482.000000 79.722 43.2803
487.000000 79.694 43.0792
494.000000 79.656 42.8108
500.000000 79.621 42.5920
508.000000 79.576 42.3243
515.000000 79.538 42.1224
522.000000 79.500 41.9453
530.000000 79.455 41.7622
538.000000 79.413 41.6021
545.000000 79.378 41.4850
552.000000 79.341 41.3823
560.000000 79.295 41.2817
570.000000 79.242 41.1998
580.000000 79.191 41.1570
590.000000 79.143 41.1425
600.000000 79.096 41.1613
608.000000 79.059 41.1980
615.000000 79.027 41.2445
622.000000 78.996 41.3071
630.000000 78.963 41.3985
640.000000 78.925 41.5317
650.000000 78.891 41.6837
660.000000 78.852 41.8690
670.000000 78.816 42.0800
680.000000 78.785 42.3166
690.000000 78.755 42.5730
700.000000 78.728 42.8515
710.000000 78.706 43.1512
720.000000 78.685 43.4689
730.000000 78.666 43.8120
740.000000 78.650 44.1634
750.000000 78.638 44.5250
762.000000 78.630 44.9957
775.000000 78.625 45.5300
788.000000 78.624 46.0818
800.000000 78.630 46.6045
812.000000 78.641 47.1419
825.000000 78.660 47.7331
838.000000 78.687 48.3242
850.000000 78.716 48.8756
862.000000 78.746 49.4379
875.000000 78.785 50.0416
885.000000 78.820 50.4982
900.000000 78.880 51.1687
912.000000 78.933 51.6895
925.000000 78.994 52.2327
938.000000 79.062 52.7631
950.000000 79.127 53.2468
962.000000 79.193 53.7009
975.000000 79.269 54.1579
988.000000 79.348 54.5899
1000.000000 79.422 54.9653
1015.000000 79.517 55.4043
1030.000000 79.611 55.8044
1044.000000 79.700 56.1462
1060.000000 79.805 56.5070
1075.000000 79.901 56.8088
1090.000000 79.995 57.0792
1106.000000 80.093 57.3481
1120.000000 80.177 57.5600
1138.000000 80.282 57.7980
1150.000000 80.350 57.9493
1172.000000 80.470 58.2169
1180.000000 80.512 58.3104
1206.000000 80.645 58.6045
1220.000000 80.713 58.7504
1241.000000 80.811 58.9690
1250.000000 80.853 59.0658
1265.000000 80.921 59.2327
1280.000000 80.988 59.4090
1315.000000 81.137 59.8284
1320.000000 81.158 59.8905
1340.000000 81.242 60.1516
1360.000000 81.325 60.4221
1380.000000 81.406 60.6984
1400.000000 81.489 60.9923
1430.000000 81.616 61.4603
1450.000000 81.702 61.7781
1475.000000 81.813 62.1750
1500.000000 81.927 62.5758
1525.000000 82.044 62.9798
1550.000000 82.165 63.3808
1575.000000 82.289 63.7694
1600.000000 82.416 64.1452
1625.000000 82.546 64.5029
1650.000000 82.680 64.8380
1675.000000 82.818 65.1467
1700.000000 82.958 65.4317
1725.000000 83.099 65.6865
1750.000000 83.242 65.9085
1775.000000 83.387 66.0931
1800.000000 83.533 66.2433
1825.000000 83.680 66.3593
1850.000000 83.826 66.4371
1875.000000 83.972 66.4800
1900.000000 84.117 66.4898
1925.000000 84.260 66.4601
1950.000000 84.401 66.3909
1975.000000 84.541 66.2881
2000.000000 84.679 66.1535
2030.000000 84.838 65.9471
2060.000000 84.993 65.6937
2090.000000 85.142 65.4040
2120.000000 85.287 65.0774
2140.000000 85.380 64.8399
2180.000000 85.557 64.3260
2200.000000 85.641 64.0523
2240.000000 85.801 63.4760
2270.000000 85.913 63.0178
2300.000000 86.018 62.5446
2330.000000 86.116 62.0645
2360.000000 86.208 61.5767
2400.000000 86.321 60.9103
2430.000000 86.398 60.4054
2470.000000 86.492 59.7378
2500.000000 86.555 59.2420
2540.000000 86.630 58.5918
2580.000000 86.695 57.9648
2620.000000 86.751 57.3647
2650.000000 86.788 56.9339
2690.000000 86.829 56.3948
2720.000000 86.854 56.0197
2760.000000 86.883 55.5651
2800.000000 86.908 55.1725
2850.000000 86.934 54.7731
2900.000000 86.960 54.4794
2950.000000 86.991 54.2949
3000.000000 87.033 54.2037
3040.000000 87.076 54.1815
3070.000000 87.116 54.1836
3110.000000 87.180 54.1949
3150.000000 87.257 54.1913
3200.000000 87.368 54.1327
3250.000000 87.496 53.9856
3300.000000 87.634 53.7284
3350.000000 87.779 53.3450
3400.000000 87.926 52.8311
3450.000000 88.070 52.1899
3500.000000 88.209 51.4286
3550.000000 88.342 50.5568
3600.000000 88.464 49.5828
3650.000000 88.574 48.5180
3700.000000 88.671 47.3784
3750.000000 88.755 46.1811
3820.000000 88.854 44.4302
3870.000000 88.912 43.1204
3950.000000 88.980 40.8937
4000.000000 89.002 39.4247
4060.000000 89.005 37.6103
4120.000000 88.983 35.7726
4180.000000 88.934 33.9393
4250.000000 88.848 31.8334
4310.000000 88.752 30.0738
4370.000000 88.637 28.3631
4440.000000 88.482 26.4325
4500.000000 88.333 24.8322
4550.000000 88.199 23.5355
4620.000000 87.993 21.7667
4680.000000 87.800 20.2797
4750.000000 87.551 18.5757
4820.000000 87.273 16.9225
4870.000000 87.053 15.7896
4940.000000 86.712 14.3060
5000.000000 86.385 13.1781
5080.000000 85.902 11.9850
5150.000000 85.440 11.3287
5220.000000 84.954 11.1085
5300.000000 84.390 11.4388
5380.000000 83.840 12.3993
5450.000000 83.388 13.7148
5520.000000 82.977 15.4005
5600.000000 82.569 17.6874
5700.000000 82.162 20.9129
5800.000000 81.870 24.3434
5900.000000 81.686 27.7960
6000.000000 81.597 31.1306
6080.000000 81.585 33.6622
6150.000000 81.611 35.7523
6220.000000 81.665 37.7224
6300.000000 81.758 39.8241
6400.000000 81.916 42.2032
6500.000000 82.114 44.2890
6600.000000 82.349 46.0525
6700.000000 82.611 47.4523
6800.000000 82.893 48.4688
6900.000000 83.185 49.0602
7000.000000 83.474 49.1648
7100.000000 83.737 48.7593
7200.000000 83.949 47.9005
7300.000000 84.094 46.7096
7400.000000 84.168 45.3202
7500.000000 84.176 43.7694
7620.000000 84.062 41.5425
7750.000000 83.649 39.2840
7880.000000 82.943 39.0192
8000.000000 82.220 41.6270
8120.000000 81.731 46.9557
8250.000000 81.794 53.8213
8380.000000 82.391 58.7746
8500.000000 83.028 60.4381
8620.000000 83.486 60.1302
8750.000000 83.732 59.1461
8850.000000 83.793 58.6146
9000.000000 83.788 58.5894
9120.000000 83.771 59.1888
9250.000000 83.786 60.2592
9380.000000 83.859 61.5494
9500.000000 83.981 62.7523
9620.000000 84.152 63.8288
9750.000000 84.388 64.6784
9880.000000 84.646 64.9886
10000.000000 84.854 64.8099
10150.000000 85.054 64.3555
10300.000000 85.232 63.8007
10440.000000 85.381 62.9575
10600.000000 85.483 61.5947
10750.000000 85.491 60.2018
10900.000000 85.427 58.9560
11060.000000 85.313 57.9440
11200.000000 85.208 57.3196
11380.000000 85.106 56.6960
11500.000000 85.071 56.2243
11720.000000 85.069 54.6811
11800.000000 85.073 53.7499
12060.000000 84.957 48.9601
12200.000000 84.708 45.4663
12410.000000 83.971 40.1966
12500.000000 83.520 38.3547
12650.000000 82.632 36.2940
12800.000000 81.639 35.6887
13150.000000 79.347 39.5476
13200.000000 79.054 40.5740
13400.000000 78.024 45.4341
13600.000000 77.231 51.0258
13800.000000 76.670 56.8147
14000.000000 76.316 62.4219
14300.000000 76.111 69.9338
14500.000000 76.151 74.0799
14750.000000 76.356 78.0489
15000.000000 76.683 80.3733
15250.000000 77.054 80.7127
15500.000000 77.327 78.8991
15750.000000 77.316 75.6810
16000.000000 76.999 73.4205
16250.000000 76.840 73.5818
16500.000000 77.309 72.9963
16750.000000 78.020 67.7288
17000.000000 78.396 58.1149
17250.000000 78.292 46.8491
17500.000000 77.848 35.7674
17750.000000 77.272 25.1175
18000.000000 76.712 14.1314
18250.000000 76.205 1.6723
18500.000000 75.665 -13.2865
18750.000000 74.926 -31.1945
19000.000000 73.812 -51.5954
19250.000000 72.225 -73.3613
19500.000000 70.177 -95.4006
19750.000000 67.815 -115.4718
