* Measurement data measured by REW V5.20.9
* Source: Headset (USB-C to 3.5mm Headphone Jack Adapter), MICROPHONE (Master Volume), L, volume: 0.260. Timing signal peak level -26.6 dBFS, measurement signal peak level -24.7 dBFS
* Format: 256k Log Swept Sine, 1 sweep at -12.0 dBFS using an acoustic timing reference
* Dated: 08/07/2024 12:05:02 PM
* REW Settings:
*  C-weighting compensation: Off
*  Target level: 75.0 dB
* Note: ; Delay -0.0394 ms (-14 mm, -0.53 in) using estimated IR delay relative to Acoustic reference on SPEAKER R with no timing offset
* Measurement: Arete R
* Smoothing: 1/24 octave
* Frequency Step: 1/48 octave
* Start Frequency: 1.000 Hz
*
* Freq(Hz) SPL(dB) Phase(degrees)
1.000000 42.555 -114.3254
1.015000 42.941 -113.2737
1.030000 43.321 -112.3082
1.044000 43.667 -111.4911
1.060000 44.050 -110.6645
1.075000 44.397 -110.0007
1.090000 44.730 -109.4520
1.106000 45.068 -109.0026
1.120000 45.360 -108.7331
1.138000 45.732 -108.5472
1.150000 45.978 -108.5168
1.172000 46.425 -108.6390
1.180000 46.587 -108.7361
1.206000 47.106 -109.2245
1.220000 47.382 -109.5854
1.241000 47.792 -110.2358
1.250000 47.966 -110.5495
1.265000 48.254 -111.1121
1.280000 48.539 -111.7167
1.315000 49.193 -113.2419
1.320000 49.286 -113.4682
1.340000 49.651 -114.3811
1.360000 50.011 -115.2912
1.380000 50.366 -116.1779
1.400000 50.716 -117.0205
1.430000 51.229 -118.1565
1.450000 51.564 -118.7985
1.475000 51.975 -119.4494
1.500000 52.375 -120.0399
1.525000 52.765 -120.6036
1.550000 53.144 -121.1458
1.575000 53.514 -121.6715
1.600000 53.876 -122.1860
1.625000 54.230 -122.6944
1.650000 54.576 -123.2018
1.675000 54.916 -123.7135
1.700000 55.250 -124.2344
1.725000 55.578 -124.7698
1.750000 55.902 -125.3248
1.775000 56.222 -125.9046
1.800000 56.538 -126.5143
1.825000 56.851 -127.1590
1.850000 57.161 -127.8423
1.875000 57.465 -128.5606
1.900000 57.762 -129.3092
1.925000 58.054 -130.0838
1.950000 58.340 -130.8797
1.975000 58.621 -131.6924
2.000000 58.897 -132.5176
2.030000 59.223 -133.5178
2.060000 59.542 -134.5216
2.090000 59.856 -135.5212
2.120000 60.165 -136.5089
2.140000 60.369 -137.1568
2.180000 60.771 -138.4171
2.200000 60.970 -139.0250
2.240000 61.360 -140.2179
2.270000 61.646 -141.1012
2.300000 61.926 -141.9754
2.330000 62.201 -142.8411
2.360000 62.470 -143.6988
2.400000 62.823 -144.8312
2.430000 63.082 -145.6728
2.470000 63.421 -146.7856
2.500000 63.672 -147.6141
2.540000 64.001 -148.7118
2.580000 64.325 -149.8014
2.620000 64.642 -150.8752
2.650000 64.874 -151.6703
2.690000 65.178 -152.7194
2.720000 65.401 -153.4995
2.760000 65.693 -154.5333
2.800000 65.980 -155.5626
2.850000 66.331 -156.8475
2.900000 66.674 -158.1363
2.950000 67.011 -159.4354
3.000000 67.339 -160.7511
3.040000 67.595 -161.8106
3.070000 67.784 -162.6059
3.110000 68.031 -163.6631
3.150000 68.273 -164.7122
3.200000 68.570 -166.0044
3.250000 68.861 -167.2659
3.300000 69.146 -168.4871
3.350000 69.426 -169.6623
3.400000 69.697 -170.7988
3.450000 69.963 -171.9065
3.500000 70.222 -172.9949
3.550000 70.476 -174.0740
3.600000 70.724 -175.1534
3.650000 70.968 -176.2428
3.700000 71.208 -177.3491
3.750000 71.441 -178.4663
3.820000 71.759 179.9656
3.870000 71.980 178.8526
3.950000 72.324 177.1045
4.000000 72.534 176.0438
4.060000 72.781 174.8141
4.120000 73.022 173.6263
4.180000 73.255 172.4713
4.250000 73.521 171.1532
4.310000 73.743 170.0385
4.370000 73.960 168.9284
4.440000 74.207 167.6303
4.500000 74.413 166.5209
4.550000 74.581 165.6028
4.620000 74.810 164.3333
4.680000 75.002 163.2652
4.750000 75.222 162.0497
4.820000 75.436 160.8716
4.870000 75.585 160.0501
4.940000 75.789 158.9242
5.000000 75.960 157.9783
5.080000 76.183 156.7390
5.150000 76.375 155.6703
5.220000 76.562 154.6196
5.300000 76.770 153.4425
5.380000 76.973 152.2903
5.450000 77.148 151.3022
5.520000 77.320 150.3329
5.600000 77.512 149.2507
5.700000 77.747 147.9331
5.800000 77.977 146.6481
5.900000 78.202 145.3907
6.000000 78.422 144.1674
6.080000 78.595 143.2097
6.150000 78.744 142.3830
6.220000 78.891 141.5636
6.300000 79.057 140.6363
6.400000 79.260 139.4952
6.500000 79.460 138.3720
6.600000 79.655 137.2645
6.700000 79.847 136.1744
6.800000 80.035 135.1011
6.900000 80.218 134.0408
7.000000 80.398 132.9900
7.100000 80.573 131.9488
7.200000 80.745 130.9196
7.300000 80.912 129.9046
7.400000 81.076 128.9052
7.500000 81.236 127.9200
7.620000 81.422 126.7565
7.750000 81.619 125.5185
7.880000 81.810 124.3040
8.000000 81.981 123.2038
8.120000 82.149 122.1240
8.250000 82.326 120.9782
8.380000 82.498 119.8534
8.500000 82.654 118.8315
8.620000 82.806 117.8268
8.750000 82.968 116.7546
8.850000 83.089 115.9391
9.000000 83.268 114.7330
9.120000 83.406 113.7821
9.250000 83.553 112.7647
9.380000 83.696 111.7612
9.500000 83.824 110.8480
9.620000 83.950 109.9474
9.750000 84.082 108.9861
9.880000 84.211 108.0413
10.000000 84.327 107.1851
10.150000 84.468 106.1350
10.300000 84.606 105.1058
10.440000 84.732 104.1654
10.600000 84.872 103.1096
10.750000 85.002 102.1360
10.900000 85.129 101.1777
11.060000 85.262 100.1650
11.200000 85.376 99.2876
11.380000 85.518 98.1699
11.500000 85.610 97.4297
11.720000 85.774 96.0885
11.800000 85.831 95.6068
12.060000 86.011 94.0653
12.200000 86.103 93.2577
12.410000 86.237 92.0753
12.500000 86.293 91.5808
12.650000 86.385 90.7738
12.800000 86.476 89.9831
13.150000 86.687 88.1927
13.200000 86.717 87.9394
13.400000 86.836 86.9329
13.600000 86.953 85.9236
13.800000 87.069 84.9052
14.000000 87.178 83.8801
14.300000 87.332 82.3369
14.500000 87.425 81.3204
14.750000 87.532 80.0909
15.000000 87.630 78.9207
15.250000 87.723 77.8288
15.500000 87.816 76.8047
15.750000 87.912 75.8363
16.000000 88.013 74.8947
16.250000 88.118 73.9482
16.500000 88.225 72.9827
16.750000 88.329 71.9834
17.000000 88.428 70.9613
17.250000 88.519 69.9302
17.500000 88.601 68.9091
17.750000 88.676 67.9223
18.000000 88.746 66.9758
18.250000 88.812 66.0754
18.500000 88.879 65.2114
18.750000 88.946 64.3720
19.000000 89.014 63.5465
19.250000 89.081 62.7218
19.500000 89.147 61.8976
19.750000 89.210 61.0737
20.000000 89.269 60.2580
20.299999 89.335 59.3002
20.600000 89.397 58.3728
20.900000 89.457 57.4782
21.200001 89.516 56.6108
21.400000 89.556 56.0412
21.799999 89.636 54.9114
22.000000 89.675 54.3467
22.400000 89.749 53.2150
22.700001 89.801 52.3692
23.000000 89.850 51.5336
23.299999 89.895 50.7139
23.600000 89.939 49.9119
24.000000 89.994 48.8683
24.299999 90.034 48.0997
24.700001 90.086 47.0874
25.000000 90.124 46.3358
25.400000 90.170 45.3467
25.799999 90.213 44.3810
26.200001 90.253 43.4468
26.500000 90.282 42.7683
26.900000 90.321 41.8891
27.200001 90.351 41.2421
27.600000 90.392 40.3847
28.000000 90.433 39.5219
28.500000 90.479 38.4318
29.000000 90.515 37.3514
29.500000 90.542 36.3206
30.000000 90.564 35.3680
30.400000 90.582 34.6558
30.700001 90.599 34.1379
31.100000 90.622 33.4501
31.500000 90.646 32.7550
32.000000 90.673 31.8791
32.500000 90.696 31.0146
33.000000 90.715 30.1738
33.500000 90.733 29.3505
34.000000 90.750 28.5359
34.500000 90.764 27.7324
35.000000 90.776 26.9469
35.500000 90.787 26.1783
36.000000 90.796 25.4207
36.500000 90.803 24.6770
37.000000 90.808 23.9590
37.500000 90.813 23.2704
38.200001 90.824 22.3249
38.700001 90.832 21.6362
39.500000 90.838 20.5198
40.000000 90.835 19.8438
40.599998 90.830 19.0710
41.200001 90.826 18.3268
41.799999 90.823 17.5880
42.500000 90.818 16.7203
43.099998 90.809 15.9885
43.700001 90.798 15.2935
44.400002 90.788 14.5281
45.000000 90.783 13.8824
45.500000 90.778 13.3417
46.200001 90.770 12.5925
46.799999 90.761 11.9633
47.500000 90.748 11.2429
48.200001 90.728 10.5690
48.700001 90.716 10.1271
49.400002 90.706 9.5117
50.000000 90.699 8.9307
50.799999 90.674 8.1188
51.500000 90.642 7.4727
52.200001 90.613 6.8828
53.000000 90.585 6.2030
53.799999 90.554 5.5221
54.500000 90.528 4.9465
55.200001 90.504 4.3754
56.000000 90.474 3.7332
57.000000 90.437 2.9789
58.000000 90.403 2.2347
59.000000 90.364 1.4894
60.000000 90.319 0.7916
60.799999 90.283 0.2560
61.500000 90.251 -0.2044
62.200001 90.219 -0.6514
63.000000 90.183 -1.1498
64.000000 90.139 -1.7758
65.000000 90.094 -2.3990
66.000000 90.046 -2.9895
67.000000 89.999 -3.5492
68.000000 89.952 -4.0936
69.000000 89.905 -4.6187
70.000000 89.856 -5.1306
71.000000 89.806 -5.6298
72.000000 89.755 -6.1105
73.000000 89.705 -6.5853
74.000000 89.653 -7.0601
75.000000 89.600 -7.5210
76.199997 89.537 -8.0497
77.500000 89.467 -8.5988
78.800003 89.398 -9.1128
80.000000 89.336 -9.5757
81.199997 89.274 -10.0312
82.500000 89.205 -10.4953
83.800003 89.138 -10.9356
85.000000 89.078 -11.3363
86.199997 89.015 -11.7264
87.500000 88.946 -12.1207
88.500000 88.893 -12.4097
90.000000 88.813 -12.8322
91.199997 88.749 -13.1588
92.500000 88.679 -13.4973
93.800003 88.609 -13.8130
95.000000 88.547 -14.0904
96.199997 88.485 -14.3588
97.500000 88.417 -14.6333
98.800003 88.351 -14.8916
100.000000 88.289 -15.1266
101.500000 88.209 -15.4080
103.000000 88.130 -15.6638
104.400002 88.057 -15.8900
106.000000 87.975 -16.1389
107.500000 87.898 -16.3563
109.000000 87.822 -16.5594
110.599998 87.741 -16.7588
112.000000 87.670 -16.9033
113.800003 87.585 -17.0693
115.000000 87.528 -17.1818
117.199997 87.422 -17.3685
118.000000 87.384 -17.4289
120.599998 87.261 -17.5935
122.000000 87.197 -17.6672
124.099998 87.103 -17.7607
125.000000 87.063 -17.7928
126.500000 86.997 -17.8451
128.000000 86.930 -17.8981
131.500000 86.774 -17.9623
132.000000 86.753 -17.9678
134.000000 86.671 -17.9821
136.000000 86.588 -17.9731
138.000000 86.506 -17.9447
140.000000 86.427 -17.9176
143.000000 86.311 -17.8708
145.000000 86.235 -17.7986
147.500000 86.141 -17.6422
150.000000 86.053 -17.4870
152.500000 85.966 -17.4105
155.000000 85.879 -17.3125
157.500000 85.797 -17.1686
160.000000 85.718 -17.0013
162.500000 85.639 -16.8229
165.000000 85.562 -16.6306
167.500000 85.489 -16.4298
170.000000 85.417 -16.2286
172.500000 85.348 -16.0212
175.000000 85.282 -15.8062
177.500000 85.218 -15.5836
180.000000 85.155 -15.3485
182.500000 85.095 -15.1053
185.000000 85.038 -14.8595
187.500000 84.981 -14.6095
190.000000 84.925 -14.3520
192.500000 84.871 -14.0874
195.000000 84.819 -13.8252
197.500000 84.768 -13.5726
200.000000 84.718 -13.3114
203.000000 84.665 -12.9866
206.000000 84.617 -12.6562
209.000000 84.569 -12.3243
212.000000 84.521 -12.0111
214.000000 84.490 -11.8038
218.000000 84.431 -11.3771
220.000000 84.403 -11.1611
224.000000 84.350 -10.7309
227.000000 84.311 -10.4086
230.000000 84.273 -10.0853
233.000000 84.237 -9.7609
236.000000 84.203 -9.4418
240.000000 84.159 -9.0282
243.000000 84.128 -8.7239
247.000000 84.089 -8.3476
250.000000 84.062 -8.0535
254.000000 84.028 -7.6030
258.000000 83.994 -7.1788
262.000000 83.962 -6.7929
265.000000 83.940 -6.5029
269.000000 83.913 -6.1177
272.000000 83.894 -5.8291
276.000000 83.869 -5.4446
280.000000 83.845 -5.0696
285.000000 83.817 -4.6119
290.000000 83.791 -4.1556
295.000000 83.766 -3.6932
300.000000 83.742 -3.2361
304.000000 83.726 -2.8920
307.000000 83.713 -2.6420
311.000000 83.697 -2.3062
315.000000 83.682 -1.9651
320.000000 83.664 -1.5460
325.000000 83.647 -1.1337
330.000000 83.632 -0.7202
335.000000 83.619 -0.3092
340.000000 83.605 0.0962
345.000000 83.594 0.4867
350.000000 83.583 0.8701
355.000000 83.571 1.2596
360.000000 83.561 1.6428
365.000000 83.554 2.0176
370.000000 83.546 2.3962
375.000000 83.539 2.7736
382.000000 83.532 3.2864
387.000000 83.529 3.6387
395.000000 83.524 4.1926
400.000000 83.520 4.5310
406.000000 83.519 4.9360
412.000000 83.517 5.3293
418.000000 83.513 5.7091
425.000000 83.510 6.1420
431.000000 83.511 6.4972
437.000000 83.510 6.8444
444.000000 83.504 7.2446
450.000000 83.499 7.5825
455.000000 83.497 7.8655
462.000000 83.494 8.2678
468.000000 83.491 8.6150
475.000000 83.485 9.0096
482.000000 83.480 9.4028
487.000000 83.475 9.6879
494.000000 83.469 10.0886
500.000000 83.463 10.4351
508.000000 83.457 10.9100
515.000000 83.452 11.3258
522.000000 83.447 11.7427
530.000000 83.440 12.2183
538.000000 83.434 12.6940
545.000000 83.427 13.1126
552.000000 83.423 13.5300
560.000000 83.420 14.0118
570.000000 83.416 14.6257
580.000000 83.412 15.2343
590.000000 83.410 15.8462
600.000000 83.409 16.4710
608.000000 83.409 16.9801
615.000000 83.409 17.4276
622.000000 83.410 17.8790
630.000000 83.411 18.3990
640.000000 83.413 19.0497
650.000000 83.416 19.7062
660.000000 83.424 20.3612
670.000000 83.432 21.0295
680.000000 83.441 21.7082
690.000000 83.452 22.3936
700.000000 83.464 23.0864
710.000000 83.479 23.7871
720.000000 83.496 24.4939
730.000000 83.516 25.2078
740.000000 83.539 25.9318
750.000000 83.565 26.6638
762.000000 83.597 27.5409
775.000000 83.637 28.4907
788.000000 83.681 29.4472
800.000000 83.727 30.3444
812.000000 83.779 31.2492
825.000000 83.842 32.2300
838.000000 83.912 33.2097
850.000000 83.984 34.1058
862.000000 84.062 34.9836
875.000000 84.154 35.9154
885.000000 84.230 36.6205
900.000000 84.353 37.6384
912.000000 84.457 38.4074
925.000000 84.574 39.1937
938.000000 84.696 39.9348
950.000000 84.812 40.5789
962.000000 84.931 41.1799
975.000000 85.062 41.7798
988.000000 85.194 42.3330
1000.000000 85.316 42.8039
1015.000000 85.467 43.3326
1030.000000 85.618 43.8032
1044.000000 85.759 44.1928
1060.000000 85.917 44.5848
1075.000000 86.063 44.9077
1090.000000 86.205 45.1876
1106.000000 86.355 45.4378
1120.000000 86.482 45.6196
1138.000000 86.641 45.8133
1150.000000 86.743 45.9197
1172.000000 86.925 46.0757
1180.000000 86.989 46.1194
1206.000000 87.189 46.2175
1220.000000 87.292 46.2521
1241.000000 87.440 46.2855
1250.000000 87.502 46.2924
1265.000000 87.602 46.2963
1280.000000 87.698 46.2925
1315.000000 87.912 46.2702
1320.000000 87.941 46.2655
1340.000000 88.056 46.2418
1360.000000 88.166 46.2130
1380.000000 88.273 46.1829
1400.000000 88.377 46.1525
1430.000000 88.528 46.1068
1450.000000 88.626 46.0732
1475.000000 88.744 46.0325
1500.000000 88.860 45.9879
1525.000000 88.974 45.9388
1550.000000 89.086 45.8847
1575.000000 89.195 45.8255
1600.000000 89.302 45.7578
1625.000000 89.408 45.6824
1650.000000 89.512 45.5975
1675.000000 89.615 45.5061
1700.000000 89.717 45.4030
1725.000000 89.817 45.2850
1750.000000 89.915 45.1540
1775.000000 90.012 45.0100
1800.000000 90.106 44.8495
1825.000000 90.199 44.6754
1850.000000 90.289 44.4868
1875.000000 90.377 44.2821
1900.000000 90.462 44.0615
1925.000000 90.545 43.8243
1950.000000 90.625 43.5723
1975.000000 90.703 43.3052
2000.000000 90.777 43.0229
2030.000000 90.862 42.6645
2060.000000 90.942 42.2896
2090.000000 91.017 41.8971
2120.000000 91.086 41.4876
2140.000000 91.129 41.2064
2180.000000 91.207 40.6270
2200.000000 91.242 40.3318
2240.000000 91.305 39.7310
2270.000000 91.344 39.2750
2300.000000 91.377 38.8185
2330.000000 91.403 38.3644
2360.000000 91.424 37.9153
2400.000000 91.442 37.3281
2430.000000 91.448 36.9022
2470.000000 91.447 36.3583
2500.000000 91.441 35.9704
2540.000000 91.424 35.4844
2580.000000 91.400 35.0397
2620.000000 91.367 34.6382
2650.000000 91.338 34.3704
2690.000000 91.294 34.0602
2720.000000 91.258 33.8626
2760.000000 91.205 33.6446
2800.000000 91.149 33.4821
2850.000000 91.077 33.3615
2900.000000 91.002 33.3327
2950.000000 90.927 33.3977
3000.000000 90.853 33.5571
3040.000000 90.796 33.7462
3070.000000 90.756 33.9222
3110.000000 90.707 34.1982
3150.000000 90.662 34.5145
3200.000000 90.614 34.9599
3250.000000 90.574 35.4479
3300.000000 90.543 35.9671
3350.000000 90.520 36.5087
3400.000000 90.506 37.0690
3450.000000 90.500 37.6469
3500.000000 90.502 38.2408
3550.000000 90.511 38.8489
3600.000000 90.530 39.4645
3650.000000 90.559 40.0849
3700.000000 90.600 40.7064
3750.000000 90.652 41.3171
3820.000000 90.747 42.1248
3870.000000 90.831 42.6496
3950.000000 90.993 43.3531
4000.000000 91.111 43.6765
4060.000000 91.266 43.9074
4120.000000 91.434 43.9345
4180.000000 91.608 43.7262
4250.000000 91.811 43.1457
4310.000000 91.973 42.3360
4370.000000 92.115 41.2300
4440.000000 92.237 39.5860
4500.000000 92.291 37.9256
4550.000000 92.294 36.4149
4620.000000 92.222 34.2111
4680.000000 92.086 32.3636
4750.000000 91.844 30.4325
4820.000000 91.522 28.9226
4870.000000 91.255 28.1921
4940.000000 90.851 27.7554
5000.000000 90.501 27.9742
5080.000000 90.077 29.1145
5150.000000 89.797 30.7866
5220.000000 89.649 32.8087
5300.000000 89.675 34.9628
5380.000000 89.879 36.1234
5450.000000 90.101 35.7812
5520.000000 90.238 34.1370
5600.000000 90.170 31.3300
5700.000000 89.715 28.1116
5800.000000 88.990 26.6073
5900.000000 88.198 27.0425
6000.000000 87.471 28.9609
6080.000000 86.975 31.2050
6150.000000 86.609 33.5066
6220.000000 86.305 36.0212
6300.000000 86.030 39.0633
6400.000000 85.786 42.9935
6500.000000 85.647 46.9564
6600.000000 85.607 50.8576
6700.000000 85.661 54.6163
6800.000000 85.805 58.1574
6900.000000 86.035 61.4039
7000.000000 86.351 64.2556
7100.000000 86.745 66.5867
7200.000000 87.208 68.2438
7300.000000 87.720 69.0609
7400.000000 88.250 68.8810
7500.000000 88.754 67.5888
7620.000000 89.248 64.5677
7750.000000 89.547 59.7908
7880.000000 89.516 54.2202
8000.000000 89.180 49.3370
8120.000000 88.602 45.4900
8250.000000 87.808 42.9322
8380.000000 86.952 42.0588
8500.000000 86.180 42.5283
8620.000000 85.469 43.9568
8750.000000 84.794 46.3138
8850.000000 84.349 48.5492
9000.000000 83.810 52.3671
9120.000000 83.495 55.6663
9250.000000 83.277 59.3238
9380.000000 83.194 62.8459
9500.000000 83.226 65.7062
9620.000000 83.334 68.0034
9750.000000 83.499 69.7803
9880.000000 83.688 70.8604
10000.000000 83.883 71.2262
10150.000000 84.137 70.4947
10300.000000 84.287 68.0498
10440.000000 84.173 64.5422
10600.000000 83.631 60.7388
10750.000000 82.811 59.1077
10900.000000 81.913 59.8458
11060.000000 81.074 62.5385
11200.000000 80.505 65.7401
11380.000000 79.989 70.3131
11500.000000 79.755 73.4576
11720.000000 79.523 79.2162
11800.000000 79.499 81.2672
12060.000000 79.649 87.6158
12200.000000 79.870 90.7359
12410.000000 80.405 94.7684
12500.000000 80.714 96.1721
12650.000000 81.340 97.9112
12800.000000 82.097 98.6559
13150.000000 84.188 94.3954
13200.000000 84.484 92.8687
13400.000000 85.474 84.1248
13600.000000 85.925 71.9915
13800.000000 85.677 59.1287
14000.000000 84.843 48.4415
14300.000000 83.124 38.5919
14500.000000 82.040 35.2750
14750.000000 80.988 33.0868
15000.000000 80.342 31.5566
15250.000000 80.072 29.3750
15500.000000 80.070 25.7351
15750.000000 80.283 20.5562
16000.000000 80.825 12.9684
16250.000000 81.479 -0.0969
16500.000000 81.509 -18.9639
16750.000000 80.576 -38.3678
17000.000000 78.998 -54.0928
17250.000000 77.288 -66.1756
17500.000000 75.785 -76.5215
17750.000000 74.583 -87.0071
18000.000000 73.586 -98.9569
18250.000000 72.586 -112.6393
18500.000000 71.410 -126.6803
18750.000000 70.225 -139.4504
19000.000000 69.545 -152.6944
19250.000000 69.418 -170.9947
19500.000000 69.232 163.8913
19750.000000 68.599 136.5840
