* Measurement data measured by REW V5.20.9
* Source: Headset (USB-C to 3.5mm Headphone Jack Adapter), MICROPHONE (Master Volume), L, volume: 0.260. Timing signal peak level -35.8 dBFS, measurement signal peak level -27.0 dBFS
* Format: 256k Log Swept Sine, 1 sweep at -12.0 dBFS using an acoustic timing reference
* Dated: 08/07/2024 12:06:07 PM
* REW Settings:
*  C-weighting compensation: Off
*  Target level: 75.0 dB
* Note: ; Delay -0.0407 ms (-14 mm, -0.55 in) using estimated IR delay relative to Acoustic reference on SPEAKER R with no timing offset
* Measurement: Arete 75ohm R
* Smoothing: 1/24 octave
* Frequency Step: 1/48 octave
* Start Frequency: 1.000 Hz
*
* Freq(Hz) SPL(dB) Phase(degrees)
1.000000 40.643 -86.0489
1.015000 41.256 -84.6622
1.030000 41.849 -83.4227
1.044000 42.381 -82.4079
1.060000 42.957 -81.4268
1.075000 43.464 -80.6909
1.090000 43.933 -80.1432
1.106000 44.390 -79.7859
1.120000 44.774 -79.7101
1.138000 45.253 -79.9266
1.150000 45.563 -80.2526
1.172000 46.112 -81.1914
1.180000 46.307 -81.6330
1.206000 46.919 -83.3912
1.220000 47.237 -84.5178
1.241000 47.701 -86.4021
1.250000 47.895 -87.2701
1.265000 48.212 -88.7823
1.280000 48.523 -90.3603
1.315000 49.223 -94.1926
1.320000 49.320 -94.7470
1.340000 49.705 -96.9546
1.360000 50.082 -99.1123
1.380000 50.453 -101.1758
1.400000 50.819 -103.1006
1.430000 51.360 -105.6306
1.450000 51.718 -107.0142
1.475000 52.163 -108.3509
1.500000 52.595 -109.4396
1.525000 53.010 -110.3546
1.550000 53.411 -111.1206
1.575000 53.799 -111.7625
1.600000 54.174 -112.3051
1.625000 54.538 -112.7732
1.650000 54.892 -113.1918
1.675000 55.238 -113.5855
1.700000 55.576 -113.9792
1.725000 55.907 -114.3978
1.750000 56.234 -114.8661
1.775000 56.556 -115.4088
1.800000 56.876 -116.0509
1.825000 57.194 -116.8172
1.850000 57.510 -117.7102
1.875000 57.818 -118.6838
1.900000 58.119 -119.7251
1.925000 58.413 -120.8233
1.950000 58.701 -121.9675
1.975000 58.983 -123.1469
2.000000 59.260 -124.3504
2.030000 59.584 -125.8114
2.060000 59.903 -127.2729
2.090000 60.215 -128.7161
2.120000 60.522 -130.1222
2.140000 60.725 -131.0297
2.180000 61.124 -132.7480
2.200000 61.322 -133.5479
2.240000 61.710 -135.0715
2.270000 61.993 -136.1685
2.300000 62.269 -137.2308
2.330000 62.540 -138.2627
2.360000 62.806 -139.2682
2.400000 63.152 -140.5751
2.430000 63.407 -141.5352
2.470000 63.740 -142.7966
2.500000 63.986 -143.7338
2.540000 64.309 -144.9796
2.580000 64.627 -146.2255
2.620000 64.937 -147.4408
2.650000 65.164 -148.3308
2.690000 65.461 -149.4949
2.720000 65.679 -150.3554
2.760000 65.964 -151.4919
2.800000 66.243 -152.6230
2.850000 66.584 -154.0411
2.900000 66.919 -155.4777
2.950000 67.247 -156.9490
3.000000 67.567 -158.4694
3.040000 67.816 -159.7087
3.070000 68.000 -160.6436
3.110000 68.240 -161.8878
3.150000 68.476 -163.1181
3.200000 68.765 -164.6179
3.250000 69.048 -166.0533
3.300000 69.327 -167.4006
3.350000 69.599 -168.6436
3.400000 69.865 -169.7994
3.450000 70.124 -170.8939
3.500000 70.378 -171.9530
3.550000 70.626 -173.0026
3.600000 70.870 -174.0685
3.650000 71.110 -175.1765
3.700000 71.346 -176.3443
3.750000 71.577 -177.5551
3.820000 71.891 -179.2861
3.870000 72.111 179.4771
3.950000 72.453 177.5493
4.000000 72.663 176.4053
4.060000 72.911 175.1222
4.120000 73.152 173.9268
4.180000 73.389 172.7935
4.250000 73.658 171.5164
4.310000 73.884 170.4318
4.370000 74.105 169.3300
4.440000 74.359 167.9995
4.500000 74.572 166.8376
4.550000 74.745 165.8650
4.620000 74.984 164.5116
4.680000 75.184 163.3728
4.750000 75.414 162.0871
4.820000 75.639 160.8589
4.870000 75.797 160.0099
4.940000 76.013 158.8508
5.000000 76.195 157.8758
5.080000 76.433 156.5874
5.150000 76.638 155.4583
5.220000 76.838 154.3329
5.300000 77.062 153.0586
5.380000 77.280 151.8004
5.450000 77.468 150.7155
5.520000 77.653 149.6480
5.600000 77.859 148.4485
5.700000 78.111 146.9764
5.800000 78.356 145.5318
5.900000 78.595 144.1120
6.000000 78.828 142.7220
6.080000 79.009 141.6281
6.150000 79.165 140.6808
6.220000 79.318 139.7402
6.300000 79.490 138.6714
6.400000 79.699 137.3484
6.500000 79.903 136.0454
6.600000 80.102 134.7682
6.700000 80.295 133.5202
6.800000 80.483 132.2971
6.900000 80.667 131.0929
7.000000 80.846 129.9020
7.100000 81.020 128.7249
7.200000 81.190 127.5652
7.300000 81.356 126.4265
7.400000 81.519 125.3121
7.500000 81.677 124.2208
7.620000 81.863 122.9352
7.750000 82.060 121.5641
7.880000 82.251 120.2187
8.000000 82.424 118.9975
8.120000 82.593 117.7942
8.250000 82.772 116.5132
8.380000 82.947 115.2499
8.500000 83.105 114.0953
8.620000 83.259 112.9535
8.750000 83.421 111.7302
8.850000 83.543 110.7976
9.000000 83.720 109.4125
9.120000 83.858 108.3198
9.250000 84.002 107.1535
9.380000 84.141 106.0042
9.500000 84.267 104.9612
9.620000 84.388 103.9368
9.750000 84.516 102.8469
9.880000 84.641 101.7790
10.000000 84.754 100.8150
10.150000 84.893 99.6366
10.300000 85.029 98.4786
10.440000 85.155 97.4188
10.600000 85.296 96.2224
10.750000 85.428 95.1084
10.900000 85.557 94.0026
11.060000 85.692 92.8202
11.200000 85.808 91.7835
11.380000 85.950 90.4525
11.500000 86.042 89.5638
11.720000 86.200 87.9481
11.800000 86.254 87.3686
12.060000 86.419 85.5188
12.200000 86.502 84.5620
12.410000 86.620 83.1775
12.500000 86.670 82.6068
12.650000 86.751 81.6873
12.800000 86.832 80.7973
13.150000 87.028 78.8175
13.200000 87.057 78.5378
13.400000 87.175 77.4291
13.600000 87.294 76.3039
13.800000 87.415 75.1487
14.000000 87.531 73.9594
14.300000 87.692 72.1181
14.500000 87.787 70.8729
14.750000 87.891 69.3420
15.000000 87.980 67.8634
15.250000 88.058 66.4762
15.500000 88.133 65.1778
15.750000 88.208 63.9593
16.000000 88.288 62.7904
16.250000 88.371 61.6314
16.500000 88.457 60.4645
16.750000 88.541 59.2698
17.000000 88.618 58.0598
17.250000 88.688 56.8502
17.500000 88.749 55.6631
17.750000 88.804 54.5228
18.000000 88.855 53.4314
18.250000 88.906 52.3901
18.500000 88.960 51.3776
18.750000 89.016 50.3776
19.000000 89.074 49.3746
19.250000 89.131 48.3561
19.500000 89.185 47.3270
19.750000 89.235 46.2917
20.000000 89.279 45.2655
20.299999 89.327 44.0591
20.600000 89.370 42.8877
20.900000 89.411 41.7506
21.200001 89.452 40.6380
21.400000 89.479 39.9034
21.799999 89.530 38.4457
22.000000 89.554 37.7220
22.400000 89.597 36.2905
22.700001 89.625 35.2385
23.000000 89.650 34.2109
23.299999 89.674 33.2081
23.600000 89.696 32.2280
24.000000 89.725 30.9499
24.299999 89.746 30.0063
24.700001 89.773 28.7597
25.000000 89.791 27.8296
25.400000 89.812 26.5961
25.799999 89.828 25.3793
26.200001 89.838 24.1938
26.500000 89.844 23.3315
26.900000 89.850 22.2159
27.200001 89.855 21.3966
27.600000 89.861 20.3132
28.000000 89.866 19.2301
28.500000 89.866 17.8859
29.000000 89.858 16.5827
29.500000 89.848 15.3362
30.000000 89.838 14.1280
30.400000 89.830 13.1702
30.700001 89.823 12.4543
31.100000 89.811 11.5104
31.500000 89.796 10.5891
32.000000 89.777 9.4737
32.500000 89.759 8.3821
33.000000 89.740 7.2947
33.500000 89.718 6.2151
34.000000 89.692 5.1625
34.500000 89.664 4.1434
35.000000 89.636 3.1454
35.500000 89.606 2.1604
36.000000 89.572 1.2016
36.500000 89.538 0.2829
37.000000 89.507 -0.6097
37.500000 89.479 -1.5111
38.200001 89.434 -2.8144
38.700001 89.391 -3.7373
39.500000 89.314 -5.1004
40.000000 89.268 -5.8858
40.599998 89.218 -6.8070
41.200001 89.170 -7.7352
41.799999 89.119 -8.6630
42.500000 89.056 -9.7191
43.099998 89.001 -10.5960
43.700001 88.944 -11.4562
44.400002 88.875 -12.4412
45.000000 88.812 -13.2574
45.500000 88.759 -13.9110
46.200001 88.684 -14.7907
46.799999 88.624 -15.5344
47.500000 88.555 -16.4374
48.200001 88.475 -17.3780
48.700001 88.407 -18.0123
49.400002 88.310 -18.7577
50.000000 88.243 -19.3097
50.799999 88.177 -20.1283
51.500000 88.114 -20.9501
52.200001 88.040 -21.7346
53.000000 87.959 -22.5552
53.799999 87.881 -23.3867
54.500000 87.804 -24.0984
55.200001 87.725 -24.7524
56.000000 87.636 -25.4622
57.000000 87.523 -26.3207
58.000000 87.410 -27.1274
59.000000 87.301 -27.9474
60.000000 87.188 -28.7899
60.799999 87.093 -29.4316
61.500000 87.012 -29.9633
62.200001 86.934 -30.4831
63.000000 86.846 -31.0759
64.000000 86.731 -31.7987
65.000000 86.614 -32.4519
66.000000 86.500 -33.0407
67.000000 86.392 -33.6212
68.000000 86.282 -34.2104
69.000000 86.168 -34.7862
70.000000 86.052 -35.3263
71.000000 85.939 -35.8450
72.000000 85.825 -36.3528
73.000000 85.712 -36.8373
74.000000 85.602 -37.3052
75.000000 85.492 -37.7673
76.199997 85.360 -38.3071
77.500000 85.217 -38.8419
78.800003 85.080 -39.3418
80.000000 84.955 -39.7970
81.199997 84.828 -40.2323
82.500000 84.687 -40.6764
83.800003 84.545 -41.0708
85.000000 84.418 -41.4024
86.199997 84.295 -41.7366
87.500000 84.161 -42.0912
88.500000 84.059 -42.3438
90.000000 83.909 -42.6947
91.199997 83.789 -42.9561
92.500000 83.660 -43.2192
93.800003 83.529 -43.4544
95.000000 83.410 -43.6531
96.199997 83.293 -43.8508
97.500000 83.168 -44.0672
98.800003 83.043 -44.2808
100.000000 82.928 -44.4523
101.500000 82.788 -44.6059
103.000000 82.654 -44.7355
104.400002 82.529 -44.8462
106.000000 82.385 -44.9548
107.500000 82.250 -45.0437
109.000000 82.117 -45.1178
110.599998 81.980 -45.1853
112.000000 81.861 -45.2284
113.800003 81.710 -45.2515
115.000000 81.610 -45.2517
117.199997 81.429 -45.2400
118.000000 81.364 -45.2292
120.599998 81.161 -45.1786
122.000000 81.055 -45.1431
124.099998 80.898 -45.0714
125.000000 80.830 -45.0310
126.500000 80.717 -44.9499
128.000000 80.608 -44.8644
131.500000 80.359 -44.6462
132.000000 80.324 -44.6064
134.000000 80.189 -44.4358
136.000000 80.054 -44.2334
138.000000 79.920 -44.0122
140.000000 79.787 -43.7991
143.000000 79.599 -43.4720
145.000000 79.483 -43.2027
147.500000 79.343 -42.7491
150.000000 79.213 -42.3264
152.500000 79.060 -42.0816
155.000000 78.906 -41.7905
157.500000 78.771 -41.4576
160.000000 78.645 -41.0798
162.500000 78.519 -40.6822
165.000000 78.395 -40.2831
167.500000 78.275 -39.8588
170.000000 78.162 -39.4338
172.500000 78.051 -39.0184
175.000000 77.942 -38.5927
177.500000 77.840 -38.1533
180.000000 77.741 -37.7112
182.500000 77.644 -37.2625
185.000000 77.549 -36.8003
187.500000 77.457 -36.3348
190.000000 77.368 -35.8731
192.500000 77.281 -35.4244
195.000000 77.197 -34.9976
197.500000 77.114 -34.5979
200.000000 77.031 -34.1589
203.000000 76.940 -33.5468
206.000000 76.856 -32.9664
209.000000 76.773 -32.4270
212.000000 76.694 -31.8735
214.000000 76.644 -31.4931
218.000000 76.545 -30.7418
220.000000 76.496 -30.3759
224.000000 76.400 -29.6650
227.000000 76.332 -29.1450
230.000000 76.268 -28.6122
233.000000 76.207 -28.0613
236.000000 76.148 -27.5132
240.000000 76.073 -26.8084
243.000000 76.021 -26.2841
247.000000 75.953 -25.5045
250.000000 75.903 -24.9347
254.000000 75.835 -24.3357
258.000000 75.772 -23.7378
262.000000 75.713 -23.1087
265.000000 75.671 -22.6459
269.000000 75.620 -22.0164
272.000000 75.585 -21.5375
276.000000 75.537 -20.9078
280.000000 75.490 -20.2865
285.000000 75.437 -19.5232
290.000000 75.387 -18.7465
295.000000 75.339 -17.9792
300.000000 75.295 -17.2239
304.000000 75.257 -16.6550
307.000000 75.231 -16.2465
311.000000 75.200 -15.6994
315.000000 75.170 -15.1350
320.000000 75.132 -14.4253
325.000000 75.098 -13.7250
330.000000 75.066 -13.0531
335.000000 75.036 -12.3971
340.000000 75.014 -11.7419
345.000000 74.998 -11.0971
350.000000 74.982 -10.4642
355.000000 74.958 -9.8444
360.000000 74.936 -9.2408
365.000000 74.919 -8.6516
370.000000 74.904 -8.0697
375.000000 74.891 -7.4875
382.000000 74.876 -6.6992
387.000000 74.864 -6.1594
395.000000 74.849 -5.3200
400.000000 74.842 -4.8060
406.000000 74.832 -4.2201
412.000000 74.820 -3.6273
418.000000 74.808 -3.0304
425.000000 74.798 -2.3600
431.000000 74.788 -1.7876
437.000000 74.779 -1.2163
444.000000 74.769 -0.5377
450.000000 74.763 0.0328
455.000000 74.755 0.4659
462.000000 74.741 1.0658
468.000000 74.730 1.5951
475.000000 74.721 2.2291
482.000000 74.715 2.8615
487.000000 74.710 3.3063
494.000000 74.705 3.9325
500.000000 74.703 4.4739
508.000000 74.697 5.1869
515.000000 74.692 5.7928
522.000000 74.686 6.3877
530.000000 74.678 7.0673
538.000000 74.675 7.7594
545.000000 74.675 8.3613
552.000000 74.673 8.9652
560.000000 74.672 9.6784
570.000000 74.673 10.5516
580.000000 74.675 11.4107
590.000000 74.683 12.2806
600.000000 74.693 13.1587
608.000000 74.698 13.8373
615.000000 74.702 14.4313
622.000000 74.708 15.0299
630.000000 74.718 15.7187
640.000000 74.732 16.6134
650.000000 74.747 17.5186
660.000000 74.764 18.3488
670.000000 74.784 19.1829
680.000000 74.805 20.0474
690.000000 74.829 20.9203
700.000000 74.857 21.7986
710.000000 74.887 22.6932
720.000000 74.919 23.5822
730.000000 74.951 24.4667
740.000000 74.986 25.3524
750.000000 75.024 26.2421
762.000000 75.080 27.3139
775.000000 75.144 28.4739
788.000000 75.210 29.6298
800.000000 75.277 30.7075
812.000000 75.352 31.7780
825.000000 75.440 32.9304
838.000000 75.538 34.0808
850.000000 75.636 35.1302
862.000000 75.738 36.1514
875.000000 75.859 37.2395
885.000000 75.958 38.0499
900.000000 76.114 39.2019
912.000000 76.248 40.0807
925.000000 76.399 40.9839
938.000000 76.554 41.8335
950.000000 76.698 42.5651
962.000000 76.844 43.2519
975.000000 77.006 43.9474
988.000000 77.171 44.5824
1000.000000 77.323 45.1159
1015.000000 77.511 45.7115
1030.000000 77.699 46.2476
1044.000000 77.875 46.7050
1060.000000 78.074 47.1670
1075.000000 78.257 47.5358
1090.000000 78.436 47.8422
1106.000000 78.627 48.1175
1120.000000 78.791 48.3256
1138.000000 78.998 48.5345
1150.000000 79.132 48.6413
1172.000000 79.373 48.7813
1180.000000 79.459 48.8119
1206.000000 79.731 48.8584
1220.000000 79.872 48.8566
1241.000000 80.076 48.8198
1250.000000 80.162 48.7918
1265.000000 80.302 48.7278
1280.000000 80.439 48.6458
1315.000000 80.747 48.4000
1320.000000 80.790 48.3587
1340.000000 80.959 48.1796
1360.000000 81.123 47.9731
1380.000000 81.281 47.7440
1400.000000 81.436 47.5018
1430.000000 81.661 47.1048
1450.000000 81.806 46.8125
1475.000000 81.984 46.4201
1500.000000 82.155 46.0005
1525.000000 82.321 45.5513
1550.000000 82.482 45.0757
1575.000000 82.637 44.5723
1600.000000 82.786 44.0406
1625.000000 82.929 43.4749
1650.000000 83.067 42.8859
1675.000000 83.198 42.2755
1700.000000 83.323 41.6397
1725.000000 83.440 40.9813
1750.000000 83.550 40.3017
1775.000000 83.654 39.6013
1800.000000 83.750 38.8863
1825.000000 83.840 38.1655
1850.000000 83.924 37.4389
1875.000000 83.999 36.7021
1900.000000 84.067 35.9580
1925.000000 84.127 35.2098
1950.000000 84.179 34.4586
1975.000000 84.225 33.7114
2000.000000 84.264 32.9719
2030.000000 84.302 32.0889
2060.000000 84.332 31.2218
2090.000000 84.351 30.3817
2120.000000 84.362 29.5667
2140.000000 84.365 29.0356
2180.000000 84.361 28.0068
2200.000000 84.355 27.5134
2240.000000 84.333 26.5699
2270.000000 84.311 25.9000
2300.000000 84.283 25.2602
2330.000000 84.250 24.6543
2360.000000 84.213 24.0839
2400.000000 84.158 23.3742
2430.000000 84.112 22.8757
2470.000000 84.048 22.2598
2500.000000 83.997 21.8360
2540.000000 83.925 21.3193
2580.000000 83.851 20.8597
2620.000000 83.774 20.4593
2650.000000 83.717 20.1903
2690.000000 83.638 19.8697
2720.000000 83.579 19.6617
2760.000000 83.500 19.4280
2800.000000 83.420 19.2405
2850.000000 83.321 19.0642
2900.000000 83.223 18.9499
2950.000000 83.127 18.9014
3000.000000 83.035 18.9165
3040.000000 82.964 18.9717
3070.000000 82.912 19.0383
3110.000000 82.846 19.1569
3150.000000 82.784 19.3015
3200.000000 82.712 19.5072
3250.000000 82.645 19.7423
3300.000000 82.583 20.0041
3350.000000 82.526 20.2875
3400.000000 82.472 20.5847
3450.000000 82.423 20.9091
3500.000000 82.378 21.2732
3550.000000 82.340 21.6640
3600.000000 82.308 22.0821
3650.000000 82.284 22.5270
3700.000000 82.270 22.9913
3750.000000 82.267 23.4648
3820.000000 82.284 24.1235
3870.000000 82.311 24.5688
3950.000000 82.384 25.1790
4000.000000 82.446 25.4679
4060.000000 82.534 25.6979
4120.000000 82.635 25.7721
4180.000000 82.745 25.6519
4250.000000 82.877 25.2268
4310.000000 82.985 24.6017
4370.000000 83.079 23.7262
4440.000000 83.159 22.3980
4500.000000 83.190 21.0234
4550.000000 83.182 19.7423
4620.000000 83.111 17.8244
4680.000000 82.989 16.1607
4750.000000 82.774 14.3414
4820.000000 82.484 12.8204
4870.000000 82.240 12.0134
4940.000000 81.864 11.3768
5000.000000 81.530 11.3497
5080.000000 81.112 12.0921
5150.000000 80.820 13.3923
5220.000000 80.646 15.0542
5300.000000 80.629 16.8540
5380.000000 80.782 17.7533
5450.000000 80.962 17.2443
5520.000000 81.061 15.4707
5600.000000 80.956 12.5328
5700.000000 80.456 9.1649
5800.000000 79.687 7.5339
5900.000000 78.850 7.8678
6000.000000 78.084 9.6915
6080.000000 77.559 11.8526
6150.000000 77.170 14.0775
6220.000000 76.843 16.5124
6300.000000 76.542 19.4563
6400.000000 76.268 23.2452
6500.000000 76.102 27.0409
6600.000000 76.035 30.7411
6700.000000 76.063 34.2802
6800.000000 76.180 37.5702
6900.000000 76.381 40.5081
7000.000000 76.662 42.9888
7100.000000 77.018 44.8879
7200.000000 77.431 46.0433
7300.000000 77.875 46.2930
7400.000000 78.314 45.5102
7500.000000 78.697 43.6550
7620.000000 79.009 40.1525
7750.000000 79.083 35.2705
7880.000000 78.836 30.1354
8000.000000 78.341 26.0320
8120.000000 77.658 23.1030
8250.000000 76.808 21.4731
8380.000000 75.937 21.3534
8500.000000 75.173 22.3584
8620.000000 74.479 24.1525
8750.000000 73.824 26.7464
8850.000000 73.396 29.0852
9000.000000 72.880 32.9358
9120.000000 72.575 36.1584
9250.000000 72.359 39.6435
9380.000000 72.262 42.8940
9500.000000 72.254 45.4888
9620.000000 72.302 47.6244
9750.000000 72.406 49.3940
9880.000000 72.554 50.5404
10000.000000 72.727 50.9112
10150.000000 72.948 50.0344
10300.000000 73.039 47.3434
10440.000000 72.841 43.7059
10600.000000 72.192 40.0471
10750.000000 71.290 38.7814
10900.000000 70.342 39.9317
11060.000000 69.478 42.9411
11200.000000 68.903 46.2952
11380.000000 68.386 50.9594
11500.000000 68.146 54.1447
11720.000000 67.891 59.9839
11800.000000 67.863 62.0460
12060.000000 67.995 68.2538
12200.000000 68.214 71.2008
12410.000000 68.745 74.8369
12500.000000 69.053 75.9979
12650.000000 69.675 77.2129
12800.000000 70.407 77.2416
13150.000000 72.231 70.3611
13200.000000 72.451 68.4091
13400.000000 73.035 58.4084
13600.000000 72.985 46.6268
13800.000000 72.307 36.0316
14000.000000 71.237 28.3972
14300.000000 69.499 22.3256
14500.000000 68.514 20.7325
14750.000000 67.621 20.0105
15000.000000 67.145 19.4303
15250.000000 67.036 17.7885
15500.000000 67.181 14.3431
15750.000000 67.519 8.9448
16000.000000 68.116 0.6835
16250.000000 68.678 -13.0974
16500.000000 68.533 -31.6685
16750.000000 67.488 -49.6982
17000.000000 65.943 -63.9721
17250.000000 64.373 -75.1215
17500.000000 63.048 -85.1441
17750.000000 62.009 -95.8801
18000.000000 61.117 -108.4505
18250.000000 60.144 -122.8260
18500.000000 58.933 -137.2251
18750.000000 57.706 -149.9543
19000.000000 57.016 -163.1089
19250.000000 56.885 178.5027
19500.000000 56.679 153.1457
19750.000000 56.003 125.6913
