* Measurement data measured by REW V5.20.9
* Source: Headset (USB-C to 3.5mm Headphone Jack Adapter), MICROPHONE (Master Volume), R, volume: 0.800. Timing signal peak level -22.9 dBFS, measurement signal peak level -20.0 dBFS
* Format: 256k Log Swept Sine, 1 sweep at -12.0 dBFS using an acoustic timing reference
* Dated: 13/07/2022 8:32:14 PM
* REW Settings:
*  C-weighting compensation: Off
*  Target level: 75.0 dB
* Note: ; Delay -0.0312 ms (-11 mm, -0.42 in) using estimated IR delay relative to Acoustic reference on  L with no timing offset
* Measurement: Aria L
* Smoothing: 1/24 octave
* Frequency Step: 1/48 octave
* Start Frequency: 1.000 Hz
*
* Freq(Hz) SPL(dB) Phase(degrees)
1.000000 60.514 36.1416
1.015000 60.768 36.0313
1.030000 61.020 35.8956
1.044000 61.251 35.7452
1.060000 61.512 35.5438
1.075000 61.752 35.3254
1.090000 61.988 35.0771
1.106000 62.234 34.7763
1.120000 62.447 34.4729
1.138000 62.718 34.0285
1.150000 62.897 33.7008
1.172000 63.221 33.0402
1.180000 63.338 32.7823
1.206000 63.714 31.8867
1.220000 63.914 31.3719
1.241000 64.210 30.5638
1.250000 64.336 30.2060
1.265000 64.544 29.5969
1.280000 64.750 28.9743
1.315000 65.225 27.4864
1.320000 65.292 27.2715
1.340000 65.557 26.4102
1.360000 65.820 25.5519
1.380000 66.080 24.7037
1.400000 66.337 23.8728
1.430000 66.717 22.6745
1.450000 66.967 21.9181
1.475000 67.276 21.0284
1.500000 67.580 20.1671
1.525000 67.879 19.3222
1.550000 68.172 18.4909
1.575000 68.460 17.6702
1.600000 68.744 16.8570
1.625000 69.023 16.0485
1.650000 69.297 15.2417
1.675000 69.567 14.4336
1.700000 69.833 13.6212
1.725000 70.094 12.8016
1.750000 70.352 11.9718
1.775000 70.606 11.1289
1.800000 70.856 10.2698
1.825000 71.103 9.3916
1.850000 71.345 8.4920
1.875000 71.584 7.5721
1.900000 71.817 6.6350
1.925000 72.046 5.6835
1.950000 72.271 4.7204
1.975000 72.492 3.7486
2.000000 72.709 2.7711
2.030000 72.964 1.5946
2.060000 73.215 0.4189
2.090000 73.460 -0.7511
2.120000 73.701 -1.9102
2.140000 73.859 -2.6745
2.180000 74.169 -4.1761
2.200000 74.322 -4.9106
2.240000 74.621 -6.3620
2.270000 74.839 -7.4409
2.300000 75.051 -8.5113
2.330000 75.259 -9.5735
2.360000 75.462 -10.6273
2.400000 75.726 -12.0194
2.430000 75.919 -13.0538
2.470000 76.171 -14.4201
2.500000 76.355 -15.4352
2.540000 76.595 -16.7757
2.580000 76.830 -18.1016
2.620000 77.057 -19.4139
2.650000 77.223 -20.3890
2.690000 77.437 -21.6766
2.720000 77.593 -22.6326
2.760000 77.796 -23.8940
2.800000 77.992 -25.1396
2.850000 78.231 -26.6738
2.900000 78.462 -28.1816
2.950000 78.686 -29.6633
3.000000 78.901 -31.1277
3.040000 79.067 -32.2853
3.070000 79.187 -33.1434
3.110000 79.343 -34.2719
3.150000 79.495 -35.3801
3.200000 79.678 -36.7324
3.250000 79.857 -38.0429
3.300000 80.031 -39.3063
3.350000 80.199 -40.5205
3.400000 80.360 -41.6898
3.450000 80.515 -42.8187
3.500000 80.665 -43.9116
3.550000 80.810 -44.9729
3.600000 80.953 -46.0072
3.650000 81.093 -47.0189
3.700000 81.230 -48.0093
3.750000 81.363 -48.9730
3.820000 81.543 -50.2758
3.870000 81.668 -51.1725
3.950000 81.863 -52.5466
4.000000 81.985 -53.3666
4.060000 82.130 -54.3078
4.120000 82.272 -55.1922
4.180000 82.412 -56.0286
4.250000 82.574 -56.9587
4.310000 82.711 -57.7296
4.370000 82.848 -58.4882
4.440000 83.009 -59.3632
4.500000 83.146 -60.0882
4.550000 83.260 -60.6765
4.620000 83.419 -61.4808
4.680000 83.555 -62.1568
4.750000 83.713 -62.9359
4.820000 83.871 -63.7024
4.870000 83.983 -64.2367
4.940000 84.140 -64.9716
5.000000 84.274 -65.5943
5.080000 84.449 -66.4225
5.150000 84.601 -67.1525
5.220000 84.751 -67.8838
5.300000 84.920 -68.7175
5.380000 85.087 -69.5479
5.450000 85.229 -70.2710
5.520000 85.368 -70.9903
5.600000 85.523 -71.8112
5.700000 85.712 -72.8319
5.800000 85.895 -73.8396
5.900000 86.071 -74.8281
6.000000 86.241 -75.8023
6.080000 86.372 -76.5698
6.150000 86.484 -77.2306
6.220000 86.593 -77.8794
6.300000 86.715 -78.6063
6.400000 86.863 -79.4954
6.500000 87.006 -80.3621
6.600000 87.146 -81.2054
6.700000 87.283 -82.0220
6.800000 87.416 -82.8146
6.900000 87.547 -83.5897
7.000000 87.676 -84.3522
7.100000 87.802 -85.0973
7.200000 87.927 -85.8282
7.300000 88.050 -86.5509
7.400000 88.171 -87.2675
7.500000 88.290 -87.9743
7.620000 88.431 -88.8154
7.750000 88.580 -89.7256
7.880000 88.725 -90.6324
8.000000 88.856 -91.4668
8.120000 88.982 -92.3001
8.250000 89.116 -93.2014
8.380000 89.244 -94.1000
8.500000 89.359 -94.9267
8.620000 89.470 -95.7513
8.750000 89.585 -96.6404
8.850000 89.671 -97.3207
9.000000 89.794 -98.3362
9.120000 89.888 -99.1420
9.250000 89.986 -100.0070
9.380000 90.079 -100.8646
9.500000 90.160 -101.6456
9.620000 90.238 -102.4152
9.750000 90.318 -103.2374
9.880000 90.393 -104.0403
10.000000 90.460 -104.7628
10.150000 90.538 -105.6417
10.300000 90.614 -106.4865
10.440000 90.681 -107.2434
10.600000 90.755 -108.0735
10.750000 90.825 -108.8160
10.900000 90.894 -109.5271
11.060000 90.969 -110.2630
11.200000 91.037 -110.8847
11.380000 91.125 -111.6729
11.500000 91.185 -112.1937
11.720000 91.297 -113.1459
11.800000 91.338 -113.4958
12.060000 91.470 -114.6400
12.200000 91.540 -115.2620
12.410000 91.641 -116.1990
12.500000 91.683 -116.5975
12.650000 91.751 -117.2601
12.800000 91.818 -117.9148
13.150000 91.966 -119.3976
13.200000 91.987 -119.6051
13.400000 92.070 -120.4219
13.600000 92.152 -121.2298
13.800000 92.234 -122.0323
14.000000 92.314 -122.8381
14.300000 92.428 -124.0539
14.500000 92.499 -124.8667
14.750000 92.579 -125.8639
15.000000 92.652 -126.8288
15.250000 92.719 -127.7378
15.500000 92.784 -128.5927
15.750000 92.850 -129.4004
16.000000 92.921 -130.1841
16.250000 92.994 -130.9766
16.500000 93.069 -131.7922
16.750000 93.141 -132.6472
17.000000 93.205 -133.5268
17.250000 93.261 -134.4128
17.500000 93.306 -135.2799
17.750000 93.345 -136.0983
18.000000 93.380 -136.8641
18.250000 93.415 -137.5737
18.500000 93.454 -138.2495
18.750000 93.496 -138.9106
19.000000 93.542 -139.5744
19.250000 93.587 -140.2557
19.500000 93.631 -140.9483
19.750000 93.670 -141.6465
20.000000 93.705 -142.3313
20.299999 93.742 -143.1206
20.600000 93.777 -143.8678
20.900000 93.811 -144.5775
21.200001 93.847 -145.2656
21.400000 93.870 -145.7211
21.799999 93.913 -146.6269
22.000000 93.932 -147.0743
22.400000 93.962 -147.9420
22.700001 93.980 -148.5549
23.000000 93.995 -149.1299
23.299999 94.011 -149.6767
23.600000 94.028 -150.2121
24.000000 94.054 -150.9424
24.299999 94.073 -151.5288
24.700001 94.093 -152.3857
25.000000 94.099 -153.0888
25.400000 94.088 -154.0918
25.799999 94.047 -155.1191
26.200001 93.972 -156.0744
26.500000 93.892 -156.6566
26.900000 93.767 -157.1285
27.200001 93.677 -157.1779
27.600000 93.595 -156.8190
28.000000 93.607 -156.1514
28.500000 93.785 -155.4949
29.000000 94.071 -155.8025
29.500000 94.319 -157.2439
30.000000 94.424 -159.1181
30.400000 94.417 -160.2570
30.700001 94.399 -160.7139
31.100000 94.422 -160.9302
31.500000 94.522 -161.1114
32.000000 94.698 -161.9179
32.500000 94.807 -163.3969
33.000000 94.791 -164.8283
33.500000 94.715 -165.6253
34.000000 94.681 -165.9669
34.500000 94.702 -166.4985
35.000000 94.698 -167.4637
35.500000 94.615 -168.4692
36.000000 94.486 -169.0439
36.500000 94.388 -169.2003
37.000000 94.355 -169.3371
37.500000 94.359 -169.7287
38.200001 94.363 -170.6064
38.700001 94.362 -171.2992
39.500000 94.366 -172.4633
40.000000 94.366 -173.2074
40.599998 94.362 -174.0792
41.200001 94.342 -174.9011
41.799999 94.300 -175.5213
42.500000 94.263 -175.8132
43.099998 94.289 -175.9832
43.700001 94.338 -176.5128
44.400002 94.340 -177.5177
45.000000 94.286 -178.3376
45.500000 94.229 -178.9281
46.200001 94.137 -179.7318
46.799999 94.041 179.6778
47.500000 93.944 179.2509
48.200001 93.900 178.8519
48.700001 93.883 178.4460
49.400002 93.850 177.8590
50.000000 93.830 177.4984
50.799999 93.842 177.0736
51.500000 93.867 176.5720
52.200001 93.880 176.0102
53.000000 93.879 175.3811
53.799999 93.859 174.7672
54.500000 93.827 174.2859
55.200001 93.792 173.8665
56.000000 93.759 173.3867
57.000000 93.719 172.6920
58.000000 93.663 171.9805
59.000000 93.604 171.4267
60.000000 93.562 170.9173
60.799999 93.521 170.4742
61.500000 93.475 170.1487
62.200001 93.432 169.8833
63.000000 93.389 169.5283
64.000000 93.316 168.9878
65.000000 93.227 168.5868
66.000000 93.170 168.2769
67.000000 93.137 167.8251
68.000000 93.100 167.2967
69.000000 93.058 166.8074
70.000000 93.016 166.3792
71.000000 92.973 165.9469
72.000000 92.912 165.4989
73.000000 92.842 165.1598
74.000000 92.783 164.8576
75.000000 92.734 164.5256
76.199997 92.688 164.0520
77.500000 92.621 163.5496
78.800003 92.561 163.1702
80.000000 92.467 162.8081
81.199997 92.367 162.8486
82.500000 92.308 162.6774
83.800003 92.224 162.3293
85.000000 92.174 162.0537
86.199997 92.146 161.5632
87.500000 92.093 160.9509
88.500000 92.031 160.5869
90.000000 91.921 160.2949
91.199997 91.831 160.1524
92.500000 91.724 160.0357
93.800003 91.629 160.1870
95.000000 91.602 160.4566
96.199997 91.610 160.7029
97.500000 91.660 161.0065
98.800003 91.708 160.7412
100.000000 91.617 160.3033
101.500000 91.439 160.3417
103.000000 91.306 160.3019
104.400002 91.243 160.0310
106.000000 91.244 159.1784
107.500000 91.225 158.2523
109.000000 91.180 157.6965
110.599998 91.094 157.4782
112.000000 90.999 157.4768
113.800003 90.865 157.2670
115.000000 90.766 157.0078
117.199997 90.604 156.7438
118.000000 90.559 156.8205
120.599998 90.465 157.7299
122.000000 90.415 158.2617
124.099998 90.299 158.9001
125.000000 90.262 159.0787
126.500000 90.246 159.1543
128.000000 90.288 159.0422
131.500000 90.500 158.6184
132.000000 90.513 158.4594
134.000000 90.419 157.8644
136.000000 90.236 157.7420
138.000000 90.112 157.5921
140.000000 90.042 157.4178
143.000000 89.965 157.5168
145.000000 89.914 157.6469
147.500000 89.892 157.5782
150.000000 89.888 157.1459
152.500000 89.826 156.9185
155.000000 89.743 156.7911
157.500000 89.648 156.5414
160.000000 89.560 156.3360
162.500000 89.474 156.2087
165.000000 89.380 156.1255
167.500000 89.292 156.0776
170.000000 89.211 156.0513
172.500000 89.129 156.0647
175.000000 89.047 156.0934
177.500000 88.967 156.1272
180.000000 88.890 156.1850
182.500000 88.818 156.2611
185.000000 88.746 156.3403
187.500000 88.675 156.4432
190.000000 88.608 156.5706
192.500000 88.545 156.6849
195.000000 88.484 156.7804
197.500000 88.427 156.8678
200.000000 88.367 156.9708
203.000000 88.297 157.1162
206.000000 88.232 157.2289
209.000000 88.169 157.3427
212.000000 88.103 157.4791
214.000000 88.059 157.5681
218.000000 87.972 157.7215
220.000000 87.928 157.8050
224.000000 87.844 157.9973
227.000000 87.781 158.1570
230.000000 87.717 158.3223
233.000000 87.658 158.4721
236.000000 87.601 158.5953
240.000000 87.523 158.7913
243.000000 87.461 158.9643
247.000000 87.372 159.1358
250.000000 87.309 159.2691
254.000000 87.248 159.5698
258.000000 87.189 159.8764
262.000000 87.125 160.1537
265.000000 87.077 160.3565
269.000000 87.011 160.6145
272.000000 86.962 160.8048
276.000000 86.899 161.0778
280.000000 86.838 161.3741
285.000000 86.763 161.7333
290.000000 86.690 162.0892
295.000000 86.619 162.4478
300.000000 86.550 162.7947
304.000000 86.499 163.0978
307.000000 86.461 163.3303
311.000000 86.410 163.6191
315.000000 86.362 163.8986
320.000000 86.305 164.2644
325.000000 86.248 164.6288
330.000000 86.189 165.0033
335.000000 86.131 165.3691
340.000000 86.078 165.7451
345.000000 86.030 166.1486
350.000000 85.985 166.5620
355.000000 85.933 166.9277
360.000000 85.882 167.2751
365.000000 85.836 167.6351
370.000000 85.791 168.0121
375.000000 85.748 168.3905
382.000000 85.688 168.9095
387.000000 85.646 169.2842
395.000000 85.580 169.9016
400.000000 85.541 170.2867
406.000000 85.498 170.7462
412.000000 85.457 171.2005
418.000000 85.416 171.6444
425.000000 85.368 172.1568
431.000000 85.331 172.6073
437.000000 85.297 173.0652
444.000000 85.264 173.5784
450.000000 85.237 174.0182
455.000000 85.202 174.3982
462.000000 85.152 174.9310
468.000000 85.116 175.3807
475.000000 85.078 175.9026
482.000000 85.044 176.4283
487.000000 85.021 176.8009
494.000000 84.990 177.3228
500.000000 84.965 177.7731
508.000000 84.932 178.3673
515.000000 84.905 178.8941
522.000000 84.878 179.4220
530.000000 84.849 -179.9794
538.000000 84.823 -179.3793
545.000000 84.805 -178.8570
552.000000 84.786 -178.3498
560.000000 84.756 -177.7765
570.000000 84.724 -177.0294
580.000000 84.698 -176.2683
590.000000 84.674 -175.5185
600.000000 84.655 -174.7773
608.000000 84.639 -174.1716
615.000000 84.625 -173.6415
622.000000 84.612 -173.1153
630.000000 84.600 -172.5116
640.000000 84.586 -171.7229
650.000000 84.577 -170.9259
660.000000 84.574 -170.2131
670.000000 84.571 -169.4935
680.000000 84.566 -168.7381
690.000000 84.565 -167.9766
700.000000 84.567 -167.2187
710.000000 84.571 -166.4602
720.000000 84.579 -165.6948
730.000000 84.587 -164.9314
740.000000 84.601 -164.1529
750.000000 84.619 -163.3624
762.000000 84.641 -162.4777
775.000000 84.667 -161.5248
788.000000 84.697 -160.5597
800.000000 84.732 -159.6567
812.000000 84.774 -158.7663
825.000000 84.823 -157.8311
838.000000 84.874 -156.9189
850.000000 84.926 -156.0824
862.000000 84.983 -155.2275
875.000000 85.050 -154.3177
885.000000 85.106 -153.6450
900.000000 85.194 -152.6741
912.000000 85.267 -151.9151
925.000000 85.350 -151.1226
938.000000 85.435 -150.3605
950.000000 85.519 -149.6911
962.000000 85.608 -149.0555
975.000000 85.709 -148.4042
988.000000 85.812 -147.7900
1000.000000 85.907 -147.2536
1015.000000 86.028 -146.6440
1030.000000 86.151 -146.0985
1044.000000 86.270 -145.6457
1060.000000 86.404 -145.2377
1075.000000 86.526 -144.9928
1090.000000 86.633 -144.8836
1106.000000 86.711 -144.9053
1120.000000 86.725 -144.8384
1138.000000 86.714 -144.1045
1150.000000 86.758 -143.2479
1172.000000 86.964 -141.9570
1180.000000 87.050 -141.7014
1206.000000 87.293 -141.3241
1220.000000 87.399 -141.2172
1241.000000 87.536 -141.0782
1250.000000 87.589 -141.0227
1265.000000 87.673 -140.9205
1280.000000 87.752 -140.7982
1315.000000 87.923 -140.4786
1320.000000 87.946 -140.4306
1340.000000 88.041 -140.2363
1360.000000 88.137 -140.0424
1380.000000 88.232 -139.8560
1400.000000 88.323 -139.6949
1430.000000 88.452 -139.4979
1450.000000 88.531 -139.3631
1475.000000 88.627 -139.1794
1500.000000 88.719 -138.9738
1525.000000 88.809 -138.7589
1550.000000 88.898 -138.5410
1575.000000 88.989 -138.3096
1600.000000 89.079 -138.0776
1625.000000 89.171 -137.8469
1650.000000 89.264 -137.6175
1675.000000 89.356 -137.3929
1700.000000 89.448 -137.1865
1725.000000 89.541 -136.9948
1750.000000 89.633 -136.8119
1775.000000 89.725 -136.6378
1800.000000 89.817 -136.4704
1825.000000 89.909 -136.3146
1850.000000 90.000 -136.1687
1875.000000 90.090 -136.0278
1900.000000 90.180 -135.8962
1925.000000 90.270 -135.7754
1950.000000 90.359 -135.6619
1975.000000 90.448 -135.5496
2000.000000 90.536 -135.4326
2030.000000 90.644 -135.2838
2060.000000 90.757 -135.1364
2090.000000 90.879 -135.0080
2120.000000 91.009 -134.9275
2140.000000 91.099 -134.9192
2180.000000 91.276 -135.0428
2200.000000 91.360 -135.1694
2240.000000 91.515 -135.5122
2270.000000 91.617 -135.8065
2300.000000 91.709 -136.1026
2330.000000 91.792 -136.3949
2360.000000 91.866 -136.6773
2400.000000 91.954 -137.0129
2430.000000 92.015 -137.2197
2470.000000 92.093 -137.4179
2500.000000 92.154 -137.5036
2540.000000 92.248 -137.5584
2580.000000 92.359 -137.6096
2620.000000 92.486 -137.7361
2650.000000 92.589 -137.9033
2690.000000 92.729 -138.2357
2720.000000 92.834 -138.5723
2760.000000 92.971 -139.1393
2800.000000 93.098 -139.8441
2850.000000 93.233 -140.8969
2900.000000 93.335 -142.0655
2950.000000 93.401 -143.2743
3000.000000 93.434 -144.4585
3040.000000 93.440 -145.3517
3070.000000 93.437 -145.9819
3110.000000 93.422 -146.7605
3150.000000 93.398 -147.4701
3200.000000 93.359 -148.2669
3250.000000 93.316 -148.9623
3300.000000 93.271 -149.5729
3350.000000 93.227 -150.1282
3400.000000 93.184 -150.6555
3450.000000 93.139 -151.1645
3500.000000 93.091 -151.6521
3550.000000 93.037 -152.1074
3600.000000 92.978 -152.5154
3650.000000 92.919 -152.8672
3700.000000 92.860 -153.1661
3750.000000 92.804 -153.4296
3820.000000 92.731 -153.7817
3870.000000 92.682 -154.0323
3950.000000 92.604 -154.4383
4000.000000 92.554 -154.6954
4060.000000 92.491 -155.0011
4120.000000 92.427 -155.2971
4180.000000 92.361 -155.5877
4250.000000 92.283 -155.9195
4310.000000 92.215 -156.2035
4370.000000 92.144 -156.4882
4440.000000 92.058 -156.8282
4500.000000 91.981 -157.1335
4550.000000 91.915 -157.3950
4620.000000 91.816 -157.7667
4680.000000 91.725 -158.0828
4750.000000 91.611 -158.4455
4820.000000 91.488 -158.7952
4870.000000 91.396 -159.0298
4940.000000 91.260 -159.3318
5000.000000 91.137 -159.5652
5080.000000 90.963 -159.8301
5150.000000 90.804 -160.0042
5220.000000 90.638 -160.1216
5300.000000 90.442 -160.1862
5380.000000 90.240 -160.1613
5450.000000 90.059 -160.0594
5520.000000 89.876 -159.8741
5600.000000 89.668 -159.5562
5700.000000 89.410 -159.0117
5800.000000 89.160 -158.3043
5900.000000 88.922 -157.4297
6000.000000 88.702 -156.3987
6080.000000 88.541 -155.4789
6150.000000 88.412 -154.6039
6220.000000 88.297 -153.6666
6300.000000 88.188 -152.5334
6400.000000 88.089 -151.0781
6500.000000 88.028 -149.6643
6600.000000 87.995 -148.2999
6700.000000 87.991 -146.9581
6800.000000 88.025 -145.6479
6900.000000 88.103 -144.4125
7000.000000 88.228 -143.2965
7100.000000 88.402 -142.3626
7200.000000 88.628 -141.6954
7300.000000 88.905 -141.3816
7400.000000 89.229 -141.5011
7500.000000 89.595 -142.1593
7620.000000 90.077 -143.8460
7750.000000 90.617 -147.0696
7880.000000 91.102 -152.0657
8000.000000 91.402 -158.3393
8120.000000 91.455 -165.9240
8250.000000 91.155 -174.7980
8380.000000 90.471 176.8154
8500.000000 89.559 170.3599
8620.000000 88.472 165.5218
8750.000000 87.207 162.0837
8850.000000 86.228 160.5393
9000.000000 84.810 159.6467
9120.000000 83.745 159.8598
9250.000000 82.669 160.7514
9380.000000 81.674 162.1612
9500.000000 80.823 163.7914
9620.000000 80.029 165.6497
9750.000000 79.226 167.8721
9880.000000 78.478 170.2789
10000.000000 77.830 172.6404
10150.000000 77.065 175.7393
10300.000000 76.348 178.9691
10440.000000 75.720 -177.8686
10600.000000 75.041 -174.0456
10750.000000 74.443 -170.2071
10900.000000 73.873 -166.0788
11060.000000 73.301 -161.2593
11200.000000 72.850 -156.5516
11380.000000 72.353 -149.6256
11500.000000 72.104 -144.2583
11720.000000 72.005 -132.5419
11800.000000 72.173 -127.8186
12060.000000 73.806 -113.6289
12200.000000 75.198 -109.2032
12410.000000 77.208 -109.0648
12500.000000 77.895 -110.9303
12650.000000 78.765 -115.1958
12800.000000 79.367 -119.6017
13150.000000 80.431 -127.4849
13200.000000 80.598 -128.3861
13400.000000 81.381 -131.9000
13600.000000 82.404 -135.8921
13800.000000 83.690 -141.2616
14000.000000 85.216 -149.0615
14300.000000 87.619 -168.1431
14500.000000 88.814 172.6591
14750.000000 89.237 143.5977
15000.000000 88.403 115.7428
15250.000000 86.870 93.3778
15500.000000 85.290 75.3025
15750.000000 83.965 58.7773
16000.000000 82.879 41.8413
16250.000000 81.883 23.5474
16500.000000 80.814 3.8125
16750.000000 79.567 -16.7825
17000.000000 78.142 -37.5591
17250.000000 76.644 -58.8044
17500.000000 75.095 -82.2697
17750.000000 72.965 -104.4369
18000.000000 70.121 -113.2815
18250.000000 68.871 -122.3115
18500.000000 68.662 -142.6295
18750.000000 68.279 -167.7792
19000.000000 67.787 164.2600
19250.000000 67.237 132.8215
19500.000000 66.563 97.8927
19750.000000 65.762 63.3890
