* Measurement data measured by REW V5.20.9
* Source: Headset (USB-C to 3.5mm Headphone Jack Adapter), MICROPHONE (Master Volume), L, volume: 0.800. Timing signal peak level -24.7 dBFS, measurement signal peak level -18.5 dBFS
* Format: 256k Log Swept Sine, 1 sweep at -12.0 dBFS using an acoustic timing reference
* Dated: 27/08/2023 5:22:13 PM
* REW Settings:
*  C-weighting compensation: Off
*  Target level: 75.0 dB
* Note: ; Delay -0.0236 ms (-8.1 mm, -0.32 in) using estimated IR delay relative to Acoustic reference on SPEAKER R with no timing offset
* Measurement: Aurora R
* Smoothing: 1/24 octave
* Frequency Step: 1/48 octave
* Start Frequency: 1.000 Hz
*
* Freq(Hz) SPL(dB) Phase(degrees)
1.000000 77.537 -3.3585
1.015000 77.654 -3.3795
1.030000 77.771 -3.4108
1.044000 77.881 -3.4502
1.060000 78.007 -3.5081
1.075000 78.126 -3.5757
1.090000 78.244 -3.6573
1.106000 78.370 -3.7595
1.120000 78.483 -3.8565
1.138000 78.631 -3.9901
1.150000 78.731 -4.0848
1.172000 78.917 -4.2705
1.180000 78.986 -4.3420
1.206000 79.213 -4.5895
1.220000 79.337 -4.7325
1.241000 79.525 -4.9602
1.250000 79.606 -5.0627
1.265000 79.741 -5.2403
1.280000 79.877 -5.4265
1.315000 80.197 -5.8952
1.320000 80.242 -5.9662
1.340000 80.425 -6.2603
1.360000 80.607 -6.5712
1.380000 80.789 -6.8992
1.400000 80.969 -7.2448
1.430000 81.235 -7.7970
1.450000 81.410 -8.1883
1.475000 81.625 -8.7050
1.500000 81.840 -9.2593
1.525000 82.056 -9.8504
1.550000 82.271 -10.4751
1.575000 82.487 -11.1305
1.600000 82.702 -11.8136
1.625000 82.915 -12.5214
1.650000 83.128 -13.2509
1.675000 83.338 -13.9990
1.700000 83.547 -14.7628
1.725000 83.753 -15.5393
1.750000 83.956 -16.3255
1.775000 84.156 -17.1184
1.800000 84.352 -17.9149
1.825000 84.545 -18.7121
1.850000 84.734 -19.5135
1.875000 84.920 -20.3327
1.900000 85.104 -21.1686
1.925000 85.286 -22.0196
1.950000 85.464 -22.8840
1.975000 85.641 -23.7602
2.000000 85.814 -24.6466
2.030000 86.019 -25.7214
2.060000 86.220 -26.8056
2.090000 86.417 -27.8964
2.120000 86.610 -28.9909
2.140000 86.736 -29.7213
2.180000 86.983 -31.1800
2.200000 87.104 -31.9066
2.240000 87.340 -33.3709
2.270000 87.512 -34.4821
2.300000 87.679 -35.6020
2.330000 87.843 -36.7284
2.360000 88.002 -37.8592
2.400000 88.209 -39.3701
2.430000 88.360 -40.5027
2.470000 88.555 -42.0083
2.500000 88.698 -43.1310
2.540000 88.882 -44.6156
2.580000 89.060 -46.0833
2.620000 89.232 -47.5491
2.650000 89.355 -48.6481
2.690000 89.514 -50.1103
2.720000 89.630 -51.2026
2.760000 89.778 -52.6505
2.800000 89.920 -54.0857
2.850000 90.091 -55.8566
2.900000 90.254 -57.5956
2.950000 90.409 -59.2981
3.000000 90.556 -60.9776
3.040000 90.666 -62.3052
3.070000 90.745 -63.2904
3.110000 90.846 -64.5883
3.150000 90.943 -65.8667
3.200000 91.058 -67.4341
3.250000 91.168 -68.9642
3.300000 91.273 -70.4533
3.350000 91.373 -71.9054
3.400000 91.465 -73.3240
3.450000 91.550 -74.7078
3.500000 91.631 -76.0553
3.550000 91.708 -77.3650
3.600000 91.782 -78.6354
3.650000 91.855 -79.8651
3.700000 91.926 -81.0517
3.750000 91.992 -82.1936
3.820000 92.079 -83.7238
3.870000 92.139 -84.7724
3.950000 92.232 -86.3827
4.000000 92.291 -87.3523
4.060000 92.363 -88.4798
4.120000 92.435 -89.5518
4.180000 92.505 -90.5747
4.250000 92.587 -91.7193
4.310000 92.659 -92.6696
4.370000 92.733 -93.6022
4.440000 92.822 -94.6695
4.500000 92.901 -95.5476
4.550000 92.968 -96.2585
4.620000 93.063 -97.2332
4.680000 93.146 -98.0596
4.750000 93.243 -99.0263
4.820000 93.341 -99.9968
4.870000 93.413 -100.6833
4.940000 93.514 -101.6383
5.000000 93.601 -102.4545
5.080000 93.716 -103.5447
5.150000 93.813 -104.5054
5.220000 93.909 -105.4727
5.300000 94.018 -106.5818
5.380000 94.125 -107.6897
5.450000 94.215 -108.6540
5.520000 94.301 -109.6112
5.600000 94.395 -110.7050
5.700000 94.507 -112.0653
5.800000 94.614 -113.4031
5.900000 94.715 -114.7045
6.000000 94.809 -115.9773
6.080000 94.880 -116.9746
6.150000 94.941 -117.8297
6.220000 95.000 -118.6665
6.300000 95.067 -119.5981
6.400000 95.146 -120.7277
6.500000 95.223 -121.8275
6.600000 95.300 -122.9065
6.700000 95.376 -123.9595
6.800000 95.450 -124.9874
6.900000 95.524 -126.0024
7.000000 95.595 -127.0153
7.100000 95.665 -128.0208
7.200000 95.733 -129.0183
7.300000 95.798 -130.0099
7.400000 95.857 -131.0000
7.500000 95.912 -131.9896
7.620000 95.972 -133.1595
7.750000 96.027 -134.3882
7.880000 96.072 -135.5898
8.000000 96.106 -136.6523
8.120000 96.134 -137.6467
8.250000 96.156 -138.6578
8.380000 96.176 -139.5960
8.500000 96.195 -140.3872
8.620000 96.213 -141.1045
8.750000 96.236 -141.8302
8.850000 96.260 -142.3655
9.000000 96.303 -143.1070
9.120000 96.342 -143.6958
9.250000 96.391 -144.3633
9.380000 96.446 -145.0422
9.500000 96.497 -145.7042
9.620000 96.545 -146.4200
9.750000 96.596 -147.2429
9.880000 96.638 -148.0916
10.000000 96.665 -148.9040
10.150000 96.688 -149.9467
10.300000 96.694 -150.9343
10.440000 96.682 -151.8186
10.600000 96.658 -152.7327
10.750000 96.627 -153.4413
10.900000 96.592 -154.0302
11.060000 96.566 -154.5273
11.200000 96.552 -154.8353
11.380000 96.558 -155.1919
11.500000 96.581 -155.4071
11.720000 96.651 -155.8714
11.800000 96.685 -156.1084
12.060000 96.815 -157.0935
12.200000 96.879 -157.8264
12.410000 96.963 -159.1493
12.500000 96.985 -159.7624
12.650000 97.004 -160.8825
12.800000 96.999 -162.0029
13.150000 96.883 -164.3585
13.200000 96.860 -164.6269
13.400000 96.743 -165.5152
13.600000 96.630 -166.0720
13.800000 96.532 -166.2485
14.000000 96.482 -166.2383
14.300000 96.508 -166.0340
14.500000 96.597 -166.0634
14.750000 96.746 -166.4975
15.000000 96.913 -167.4550
15.250000 97.043 -168.9087
15.500000 97.115 -170.6295
15.750000 97.117 -172.4543
16.000000 97.051 -174.1174
16.250000 96.940 -175.4480
16.500000 96.805 -176.3884
16.750000 96.675 -176.9034
17.000000 96.577 -177.1233
17.250000 96.519 -177.1531
17.500000 96.507 -177.1320
17.750000 96.530 -177.1977
18.000000 96.576 -177.3877
18.250000 96.635 -177.7383
18.500000 96.694 -178.2333
18.750000 96.749 -178.8503
19.000000 96.794 -179.5679
19.250000 96.826 179.6473
19.500000 96.845 178.8215
19.750000 96.848 177.9778
20.000000 96.838 177.1545
20.299999 96.810 176.2260
20.600000 96.772 175.3850
20.900000 96.731 174.6345
21.200001 96.693 173.9515
21.400000 96.669 173.5136
21.799999 96.625 172.6596
22.000000 96.602 172.2421
22.400000 96.551 171.4498
22.700001 96.510 170.9262
23.000000 96.472 170.4821
23.299999 96.443 170.1000
23.600000 96.425 169.7434
24.000000 96.417 169.2428
24.299999 96.415 168.8169
24.700001 96.408 168.1920
25.000000 96.395 167.7172
25.400000 96.370 167.1249
25.799999 96.344 166.5901
26.200001 96.323 166.0687
26.500000 96.308 165.6509
26.900000 96.285 165.0385
27.200001 96.261 164.5469
27.600000 96.220 163.8759
28.000000 96.172 163.2046
28.500000 96.108 162.3464
29.000000 96.040 161.4423
29.500000 95.968 160.5244
30.000000 95.906 159.6133
30.400000 95.874 158.8201
30.700001 95.857 158.1284
31.100000 95.828 157.0486
31.500000 95.772 155.8731
32.000000 95.657 154.5704
32.500000 95.527 153.7656
33.000000 95.453 153.4144
33.500000 95.460 153.1263
34.000000 95.510 152.5686
34.500000 95.545 151.7937
35.000000 95.548 151.0607
35.500000 95.542 150.5083
36.000000 95.542 150.0496
36.500000 95.542 149.5695
37.000000 95.528 149.0688
37.500000 95.498 148.6046
38.200001 95.446 147.9919
38.700001 95.402 147.5086
39.500000 95.309 146.6654
40.000000 95.244 146.1412
40.599998 95.168 145.5025
41.200001 95.099 144.8289
41.799999 95.036 144.1312
42.500000 94.975 143.2858
43.099998 94.929 142.5337
43.700001 94.882 141.8100
44.400002 94.830 141.0447
45.000000 94.789 140.4300
45.500000 94.749 139.9536
46.200001 94.686 139.4059
46.799999 94.636 139.0300
47.500000 94.579 138.5886
48.200001 94.511 138.1892
48.700001 94.469 137.9816
49.400002 94.442 137.6406
50.000000 94.434 137.0682
50.799999 94.380 135.9762
51.500000 94.284 135.1242
52.200001 94.190 134.5087
53.000000 94.110 133.8856
53.799999 94.042 133.2208
54.500000 93.982 132.6385
55.200001 93.919 132.0937
56.000000 93.848 131.5140
57.000000 93.756 130.7913
58.000000 93.654 130.1706
59.000000 93.573 129.5837
60.000000 93.484 128.8279
60.799999 93.392 128.3193
61.500000 93.320 127.9970
62.200001 93.265 127.6567
63.000000 93.200 127.1921
64.000000 93.109 126.6444
65.000000 93.022 126.1150
66.000000 92.921 125.5563
67.000000 92.808 125.2168
68.000000 92.726 125.0471
69.000000 92.660 124.8203
70.000000 92.580 124.7289
71.000000 92.513 124.9213
72.000000 92.483 125.3447
73.000000 92.523 125.7852
74.000000 92.623 125.7786
75.000000 92.718 125.1156
76.199997 92.757 123.7438
77.500000 92.704 122.2347
78.800003 92.645 121.1860
80.000000 92.671 120.1628
81.199997 92.662 118.5740
82.500000 92.548 117.3024
83.800003 92.487 116.5215
85.000000 92.451 115.4901
86.199997 92.353 114.3923
87.500000 92.217 113.6865
88.500000 92.136 113.3234
90.000000 92.035 112.9013
91.199997 91.989 112.5180
92.500000 91.925 111.7520
93.800003 91.813 111.0407
95.000000 91.722 110.5376
96.199997 91.649 109.9547
97.500000 91.561 109.3326
98.800003 91.473 108.8681
100.000000 91.414 108.5571
101.500000 91.372 107.8987
103.000000 91.284 106.9682
104.400002 91.187 106.2444
106.000000 91.097 105.4416
107.500000 91.022 104.7020
109.000000 90.946 104.0034
110.599998 90.860 103.3481
112.000000 90.784 102.8534
113.800003 90.695 102.3071
115.000000 90.642 101.9441
117.199997 90.547 101.2383
118.000000 90.513 100.9555
120.599998 90.402 99.9683
122.000000 90.343 99.4247
124.099998 90.239 98.7150
125.000000 90.189 98.4619
126.500000 90.105 98.0445
128.000000 90.029 97.5356
131.500000 89.968 96.0055
132.000000 89.975 95.7506
134.000000 89.973 94.6156
136.000000 89.833 94.0189
138.000000 89.684 94.0665
140.000000 89.574 93.8504
143.000000 89.443 92.9982
145.000000 89.360 92.4016
147.500000 89.244 91.6490
150.000000 89.137 91.0468
152.500000 89.092 90.5132
155.000000 89.037 89.9248
157.500000 88.959 89.3801
160.000000 88.872 88.8080
162.500000 88.761 88.1762
165.000000 88.630 87.2609
167.500000 88.492 86.2065
170.000000 88.440 85.8212
172.500000 88.460 85.6106
175.000000 88.427 85.3335
177.500000 88.362 84.9013
180.000000 88.307 84.3857
182.500000 88.258 83.9084
185.000000 88.196 83.4109
187.500000 88.122 82.9121
190.000000 88.055 82.4609
192.500000 87.992 82.0189
195.000000 87.923 81.5485
197.500000 87.830 81.1928
200.000000 87.728 81.3059
203.000000 87.718 81.2462
206.000000 87.710 80.1827
209.000000 87.669 79.3464
212.000000 87.620 78.8970
214.000000 87.586 78.6649
218.000000 87.543 78.0699
220.000000 87.522 77.6954
224.000000 87.468 76.9991
227.000000 87.430 76.5340
230.000000 87.398 75.9523
233.000000 87.374 75.1861
236.000000 87.337 74.5464
240.000000 87.265 74.2214
243.000000 87.212 73.9399
247.000000 87.150 73.4463
250.000000 87.109 73.0837
254.000000 87.061 72.4955
258.000000 87.015 71.9221
262.000000 86.968 71.4472
265.000000 86.934 71.0953
269.000000 86.888 70.6367
272.000000 86.861 70.3257
276.000000 86.828 69.9150
280.000000 86.791 69.4808
285.000000 86.744 68.9096
290.000000 86.699 68.3621
295.000000 86.662 67.8564
300.000000 86.627 67.3652
304.000000 86.598 67.0040
307.000000 86.578 66.7467
311.000000 86.553 66.3998
315.000000 86.528 66.0524
320.000000 86.501 65.6282
325.000000 86.477 65.2198
330.000000 86.452 64.8274
335.000000 86.426 64.4427
340.000000 86.405 64.0693
345.000000 86.389 63.6711
350.000000 86.376 63.2601
355.000000 86.360 62.9278
360.000000 86.345 62.6158
365.000000 86.331 62.2976
370.000000 86.319 61.9966
375.000000 86.311 61.6928
382.000000 86.305 61.2469
387.000000 86.299 60.9371
395.000000 86.289 60.4469
400.000000 86.282 60.1740
406.000000 86.278 59.8495
412.000000 86.280 59.5137
418.000000 86.286 59.1965
425.000000 86.290 58.8526
431.000000 86.291 58.5629
437.000000 86.294 58.2562
444.000000 86.304 57.8797
450.000000 86.311 57.5607
455.000000 86.319 57.3389
462.000000 86.331 57.0549
468.000000 86.341 56.7908
475.000000 86.357 56.4785
482.000000 86.374 56.1690
487.000000 86.385 55.9445
494.000000 86.401 55.6376
500.000000 86.413 55.3774
508.000000 86.435 55.0258
515.000000 86.454 54.7218
522.000000 86.474 54.4228
530.000000 86.496 54.0896
538.000000 86.519 53.7538
545.000000 86.537 53.4329
552.000000 86.555 53.1153
560.000000 86.579 52.7928
570.000000 86.610 52.3754
580.000000 86.634 51.9542
590.000000 86.659 51.5525
600.000000 86.684 51.1562
608.000000 86.702 50.8302
615.000000 86.719 50.5350
622.000000 86.736 50.2371
630.000000 86.757 49.9018
640.000000 86.783 49.5066
650.000000 86.804 49.1312
660.000000 86.815 48.7477
670.000000 86.822 48.3701
680.000000 86.829 47.9811
690.000000 86.835 47.5857
700.000000 86.840 47.2479
710.000000 86.844 46.9579
720.000000 86.842 46.6556
730.000000 86.840 46.3618
740.000000 86.840 46.1048
750.000000 86.838 45.8849
762.000000 86.833 45.6480
775.000000 86.830 45.4492
788.000000 86.824 45.2885
800.000000 86.818 45.1579
812.000000 86.817 45.0654
825.000000 86.821 45.0143
838.000000 86.825 44.9966
850.000000 86.829 44.9918
862.000000 86.838 45.0131
875.000000 86.853 45.0556
885.000000 86.867 45.0903
900.000000 86.891 45.1532
912.000000 86.914 45.2197
925.000000 86.942 45.3094
938.000000 86.975 45.4017
950.000000 87.010 45.4910
962.000000 87.046 45.5758
975.000000 87.088 45.6722
988.000000 87.131 45.7571
1000.000000 87.173 45.8163
1015.000000 87.230 45.8842
1030.000000 87.292 45.9388
1044.000000 87.350 45.9730
1060.000000 87.416 45.9982
1075.000000 87.479 45.9967
1090.000000 87.543 45.9889
1106.000000 87.610 45.9710
1120.000000 87.667 45.9294
1138.000000 87.741 45.8640
1150.000000 87.791 45.8318
1172.000000 87.881 45.7482
1180.000000 87.912 45.7105
1206.000000 88.013 45.5962
1220.000000 88.066 45.5298
1241.000000 88.142 45.4252
1250.000000 88.174 45.3802
1265.000000 88.228 45.3047
1280.000000 88.281 45.2349
1315.000000 88.403 45.1047
1320.000000 88.420 45.0891
1340.000000 88.486 45.0307
1360.000000 88.555 44.9807
1380.000000 88.625 44.9309
1400.000000 88.695 44.8764
1430.000000 88.801 44.8126
1450.000000 88.873 44.7816
1475.000000 88.966 44.7431
1500.000000 89.061 44.7161
1525.000000 89.158 44.6857
1550.000000 89.256 44.6498
1575.000000 89.356 44.6089
1600.000000 89.459 44.5609
1625.000000 89.565 44.4894
1650.000000 89.672 44.4125
1675.000000 89.781 44.3395
1700.000000 89.891 44.2411
1725.000000 90.004 44.1171
1750.000000 90.118 43.9756
1775.000000 90.232 43.8151
1800.000000 90.347 43.6392
1825.000000 90.464 43.4427
1850.000000 90.579 43.2194
1875.000000 90.693 42.9641
1900.000000 90.806 42.6831
1925.000000 90.918 42.3835
1950.000000 91.031 42.0648
1975.000000 91.142 41.7288
2000.000000 91.252 41.3689
2030.000000 91.378 40.9106
2060.000000 91.501 40.4487
2090.000000 91.619 39.9899
2120.000000 91.734 39.5455
2140.000000 91.810 39.2725
2180.000000 91.973 38.7892
2200.000000 92.065 38.5623
2240.000000 92.281 38.0107
2270.000000 92.463 37.4001
2300.000000 92.640 36.5656
2330.000000 92.797 35.5345
2360.000000 92.928 34.3938
2400.000000 93.066 32.8469
2430.000000 93.149 31.7085
2470.000000 93.240 30.2336
2500.000000 93.297 29.1604
2540.000000 93.362 27.7673
2580.000000 93.414 26.4093
2620.000000 93.455 25.0787
2650.000000 93.480 24.0974
2690.000000 93.507 22.8121
2720.000000 93.521 21.8670
2760.000000 93.531 20.6307
2800.000000 93.535 19.4227
2850.000000 93.531 17.9573
2900.000000 93.517 16.5304
2950.000000 93.494 15.1396
3000.000000 93.461 13.7820
3040.000000 93.427 12.7209
3070.000000 93.399 11.9494
3110.000000 93.357 10.9636
3150.000000 93.310 10.0247
3200.000000 93.250 8.8998
3250.000000 93.192 7.8228
3300.000000 93.134 6.7738
3350.000000 93.078 5.7309
3400.000000 93.021 4.6881
3450.000000 92.963 3.6196
3500.000000 92.901 2.5112
3550.000000 92.831 1.3727
3600.000000 92.748 0.2122
3650.000000 92.649 -0.9515
3700.000000 92.531 -2.0756
3750.000000 92.397 -3.1104
3820.000000 92.200 -4.3644
3870.000000 92.062 -5.1497
3950.000000 91.851 -6.3510
4000.000000 91.717 -7.1047
4060.000000 91.550 -8.0118
4120.000000 91.369 -8.9027
4180.000000 91.171 -9.7435
4250.000000 90.922 -10.5999
4310.000000 90.699 -11.1817
4370.000000 90.473 -11.6186
4440.000000 90.209 -11.9645
4500.000000 89.985 -12.1354
4550.000000 89.801 -12.1991
4620.000000 89.546 -12.1688
4680.000000 89.331 -12.0207
4750.000000 89.088 -11.7054
4820.000000 88.855 -11.2367
4870.000000 88.697 -10.8062
4940.000000 88.490 -10.0762
5000.000000 88.330 -9.3318
5080.000000 88.146 -8.1810
5150.000000 88.014 -7.0712
5220.000000 87.913 -5.9011
5300.000000 87.844 -4.5156
5380.000000 87.828 -3.1246
5450.000000 87.861 -1.9579
5520.000000 87.941 -0.9164
5600.000000 88.085 0.0059
5700.000000 88.331 0.5480
5800.000000 88.614 0.1956
5900.000000 88.867 -1.2126
6000.000000 89.005 -3.5806
6080.000000 88.986 -5.8594
6150.000000 88.863 -7.8197
6220.000000 88.647 -9.4744
6300.000000 88.317 -10.7308
6400.000000 87.855 -11.1628
6500.000000 87.423 -10.4116
6600.000000 87.087 -8.7454
6700.000000 86.884 -6.4913
6800.000000 86.832 -3.9560
6900.000000 86.939 -1.4224
7000.000000 87.205 0.8617
7100.000000 87.625 2.6251
7200.000000 88.189 3.5641
7300.000000 88.871 3.3538
7400.000000 89.634 1.5962
7500.000000 90.388 -2.1536
7620.000000 91.093 -9.4907
7750.000000 91.380 -20.1038
7880.000000 91.030 -31.3004
8000.000000 90.207 -40.0134
8120.000000 89.089 -46.1670
8250.000000 87.760 -50.0587
8380.000000 86.462 -51.6938
8500.000000 85.353 -51.7419
8620.000000 84.355 -50.7682
8750.000000 83.404 -48.8685
8850.000000 82.764 -46.9709
9000.000000 81.955 -43.6121
9120.000000 81.441 -40.6271
9250.000000 81.025 -37.3191
9380.000000 80.741 -34.1602
9500.000000 80.569 -31.4675
9620.000000 80.471 -29.0065
9750.000000 80.443 -26.6066
9880.000000 80.498 -24.5393
10000.000000 80.620 -23.0186
10150.000000 80.854 -21.8071
10300.000000 81.150 -21.5254
10440.000000 81.452 -22.2604
10600.000000 81.762 -24.4225
10750.000000 81.949 -27.6547
10900.000000 81.987 -31.7550
11060.000000 81.825 -36.6052
11200.000000 81.503 -40.8391
11380.000000 80.848 -45.6841
11500.000000 80.268 -48.1415
11720.000000 79.019 -49.8843
11800.000000 78.577 -49.5358
12060.000000 77.498 -46.3741
12200.000000 77.159 -44.3267
12410.000000 76.864 -41.3634
12500.000000 76.803 -40.1403
12650.000000 76.787 -38.1837
12800.000000 76.890 -36.3957
13150.000000 77.656 -33.4958
13200.000000 77.829 -33.3173
13400.000000 78.670 -33.5189
13600.000000 79.739 -35.8427
13800.000000 80.927 -41.3758
14000.000000 81.976 -50.9155
14300.000000 82.655 -71.4208
14500.000000 82.325 -85.7533
14750.000000 81.276 -100.4188
15000.000000 79.984 -110.7848
15250.000000 78.801 -118.0461
15500.000000 77.920 -123.5027
15750.000000 77.440 -128.3296
16000.000000 77.428 -133.7080
16250.000000 77.885 -141.1321
16500.000000 78.669 -152.4171
16750.000000 79.427 -169.1615
17000.000000 79.684 168.7925
17250.000000 79.131 144.7692
17500.000000 77.878 122.9285
17750.000000 76.371 104.3903
18000.000000 75.030 87.2454
18250.000000 73.951 69.0662
18500.000000 72.939 48.7561
18750.000000 71.796 26.5212
19000.000000 70.434 2.8700
19250.000000 68.825 -21.5306
19500.000000 66.991 -45.7745
19750.000000 65.091 -67.7593
