* Measurement data measured by REW V5.20.9
* Source: Headset (USB-C to 3.5mm Headphone Jack Adapter), MICROPHONE (Master Volume), L, volume: 0.250. Timing signal peak level -29.3 dBFS, measurement signal peak level -28.0 dBFS
* Format: 256k Log Swept Sine, 1 sweep at -12.0 dBFS using an acoustic timing reference
* Dated: 27/10/2023 9:13:38 PM
* REW Settings:
*  C-weighting compensation: Off
*  Target level: 75.0 dB
* Note: ; Delay -0.0283 ms (-9.7 mm, -0.38 in) using estimated IR delay relative to Acoustic reference on SPEAKER R with no timing offset
* Measurement: Canon 2 01 R
* Smoothing: 1/24 octave
* Frequency Step: 1/48 octave
* Start Frequency: 1.000 Hz
*
* Freq(Hz) SPL(dB) Phase(degrees)
1.000000 32.412 -117.2982
1.015000 32.719 -114.2469
1.030000 33.029 -111.3405
1.044000 33.319 -108.7762
1.060000 33.651 -106.0424
1.075000 33.960 -103.6908
1.090000 34.267 -101.5642
1.106000 34.591 -99.5487
1.120000 34.889 -97.9099
1.138000 35.294 -95.9431
1.150000 35.576 -94.7178
1.172000 36.116 -92.6448
1.180000 36.318 -91.9456
1.206000 36.997 -89.8678
1.220000 37.373 -88.8692
1.241000 37.947 -87.5239
1.250000 38.195 -87.0019
1.265000 38.613 -86.2028
1.280000 39.032 -85.4902
1.315000 40.007 -84.1504
1.320000 40.145 -83.9945
1.340000 40.694 -83.4567
1.360000 41.231 -83.0511
1.380000 41.754 -82.7722
1.400000 42.258 -82.6142
1.430000 42.972 -82.5914
1.450000 43.414 -82.7107
1.475000 43.924 -83.0296
1.500000 44.402 -83.7640
1.525000 44.854 -84.9166
1.550000 45.283 -86.4263
1.575000 45.690 -88.2319
1.600000 46.079 -90.2723
1.625000 46.452 -92.4861
1.650000 46.809 -94.8123
1.675000 47.155 -97.1896
1.700000 47.491 -99.5569
1.725000 47.819 -101.8531
1.750000 48.143 -104.0168
1.775000 48.463 -105.9869
1.800000 48.782 -107.7023
1.825000 49.102 -109.1017
1.850000 49.423 -110.1801
1.875000 49.735 -111.0543
1.900000 50.038 -111.7551
1.925000 50.333 -112.3080
1.950000 50.620 -112.7389
1.975000 50.901 -113.0734
2.000000 51.176 -113.3371
2.030000 51.498 -113.5964
2.060000 51.813 -113.8353
2.090000 52.122 -114.0982
2.120000 52.425 -114.4295
2.140000 52.625 -114.7103
2.180000 53.021 -115.4748
2.200000 53.217 -115.9844
2.240000 53.601 -117.1835
2.270000 53.881 -118.1914
2.300000 54.154 -119.2736
2.330000 54.422 -120.4131
2.360000 54.684 -121.5931
2.400000 55.025 -123.2002
2.430000 55.276 -124.4088
2.470000 55.605 -125.9928
2.500000 55.847 -127.1380
2.540000 56.167 -128.5760
2.580000 56.482 -129.8853
2.620000 56.790 -131.1255
2.650000 57.016 -132.0243
2.690000 57.311 -133.1846
2.720000 57.528 -134.0289
2.760000 57.812 -135.1238
2.800000 58.091 -136.1877
2.850000 58.433 -137.4811
2.900000 58.769 -138.7426
2.950000 59.100 -139.9749
3.000000 59.423 -141.1340
3.040000 59.676 -142.0140
3.070000 59.863 -142.6544
3.110000 60.108 -143.4916
3.150000 60.349 -144.3211
3.200000 60.646 -145.3652
3.250000 60.938 -146.4395
3.300000 61.226 -147.5676
3.350000 61.509 -148.7681
3.400000 61.787 -150.0240
3.450000 62.060 -151.3077
3.500000 62.327 -152.5916
3.550000 62.591 -153.8477
3.600000 62.850 -155.0485
3.650000 63.107 -156.1663
3.700000 63.360 -157.1770
3.750000 63.609 -158.0908
3.820000 63.951 -159.2604
3.870000 64.191 -160.0557
3.950000 64.567 -161.3364
4.000000 64.799 -162.1857
4.060000 65.073 -163.2949
4.120000 65.342 -164.4822
4.180000 65.607 -165.7128
4.250000 65.910 -167.1599
4.310000 66.165 -168.3732
4.370000 66.416 -169.5270
4.440000 66.705 -170.7649
4.500000 66.947 -171.7503
4.550000 67.146 -172.5359
4.620000 67.421 -173.6078
4.680000 67.651 -174.5247
4.750000 67.916 -175.6237
4.820000 68.176 -176.7720
4.870000 68.359 -177.6090
4.940000 68.610 -178.7898
5.000000 68.822 -179.7978
5.080000 69.099 178.8848
5.150000 69.336 177.7756
5.220000 69.569 176.7033
5.300000 69.830 175.5095
5.380000 70.085 174.3379
5.450000 70.304 173.3216
5.520000 70.519 172.3059
5.600000 70.760 171.1520
5.700000 71.054 169.7257
5.800000 71.340 168.3200
5.900000 71.619 166.9373
6.000000 71.891 165.5744
6.080000 72.103 164.5002
6.150000 72.285 163.5740
6.220000 72.465 162.6622
6.300000 72.666 161.6400
6.400000 72.911 160.3899
6.500000 73.150 159.1628
6.600000 73.383 157.9502
6.700000 73.611 156.7476
6.800000 73.833 155.5610
6.900000 74.049 154.3984
7.000000 74.261 153.2676
7.100000 74.467 152.1687
7.200000 74.669 151.0955
7.300000 74.867 150.0414
7.400000 75.061 149.0025
7.500000 75.251 147.9817
7.620000 75.474 146.7833
7.750000 75.711 145.5213
7.880000 75.943 144.2998
8.000000 76.153 143.1977
8.120000 76.360 142.1114
8.250000 76.581 140.9577
8.380000 76.798 139.8216
8.500000 76.995 138.7833
8.620000 77.189 137.7584
8.750000 77.396 136.6570
8.850000 77.552 135.8125
9.000000 77.782 134.5532
9.120000 77.962 133.5509
9.250000 78.151 132.4674
9.380000 78.336 131.3872
9.500000 78.501 130.3980
9.620000 78.661 129.4179
9.750000 78.830 128.3648
9.880000 78.993 127.3263
10.000000 79.139 126.3814
10.150000 79.314 125.2186
10.300000 79.484 124.0843
10.440000 79.637 123.0521
10.600000 79.807 121.9017
10.750000 79.962 120.8522
10.900000 80.113 119.8295
11.060000 80.270 118.7643
11.200000 80.406 117.8552
11.380000 80.576 116.7090
11.500000 80.688 115.9577
11.720000 80.889 114.6045
11.800000 80.961 114.1184
12.060000 81.190 112.5620
12.200000 81.310 111.7359
12.410000 81.486 110.5129
12.500000 81.560 109.9943
12.650000 81.681 109.1378
12.800000 81.800 108.2898
13.150000 82.070 106.3416
13.200000 82.107 106.0660
13.400000 82.255 104.9706
13.600000 82.398 103.8837
13.800000 82.538 102.8038
14.000000 82.672 101.7328
14.300000 82.864 100.1457
14.500000 82.985 99.1062
14.750000 83.130 97.8366
15.000000 83.268 96.6042
15.250000 83.401 95.4143
15.500000 83.531 94.2628
15.750000 83.658 93.1452
16.000000 83.785 92.0518
16.250000 83.910 90.9717
16.500000 84.032 89.9003
16.750000 84.152 88.8321
17.000000 84.267 87.7698
17.250000 84.378 86.7169
17.500000 84.484 85.6783
17.750000 84.586 84.6601
18.000000 84.684 83.6634
18.250000 84.779 82.6891
18.500000 84.871 81.7339
18.750000 84.961 80.7951
19.000000 85.049 79.8701
19.250000 85.135 78.9568
19.500000 85.217 78.0566
19.750000 85.297 77.1706
20.000000 85.373 76.3024
20.299999 85.462 75.2860
20.600000 85.548 74.2975
20.900000 85.633 73.3342
21.200001 85.716 72.3903
21.400000 85.771 71.7680
21.799999 85.878 70.5364
22.000000 85.930 69.9261
22.400000 86.030 68.7187
22.700001 86.101 67.8289
23.000000 86.170 66.9559
23.299999 86.236 66.1001
23.600000 86.300 65.2598
24.000000 86.383 64.1601
24.299999 86.443 63.3489
24.700001 86.519 62.2864
25.000000 86.574 61.5056
25.400000 86.645 60.4870
25.799999 86.714 59.4899
26.200001 86.781 58.5065
26.500000 86.830 57.7753
26.900000 86.892 56.8109
27.200001 86.935 56.1004
27.600000 86.991 55.1765
28.000000 87.045 54.2794
28.500000 87.113 53.1805
29.000000 87.180 52.0846
29.500000 87.241 50.9908
30.000000 87.295 49.9235
30.400000 87.335 49.1034
30.700001 87.365 48.5081
31.100000 87.405 47.7308
31.500000 87.445 46.9615
32.000000 87.493 46.0049
32.500000 87.536 45.0658
33.000000 87.575 44.1609
33.500000 87.614 43.2897
34.000000 87.652 42.4371
34.500000 87.689 41.5934
35.000000 87.723 40.7630
35.500000 87.754 39.9536
36.000000 87.785 39.1618
36.500000 87.815 38.3775
37.000000 87.843 37.5976
37.500000 87.867 36.8300
38.200001 87.898 35.7881
38.700001 87.919 35.0635
39.500000 87.950 33.9313
40.000000 87.968 33.2486
40.599998 87.990 32.4526
41.200001 88.016 31.6576
41.799999 88.039 30.8474
42.500000 88.061 29.9018
43.099998 88.075 29.1181
43.700001 88.089 28.3602
44.400002 88.104 27.4903
45.000000 88.115 26.7507
45.500000 88.123 26.1437
46.200001 88.130 25.3187
46.799999 88.135 24.6417
47.500000 88.144 23.8853
48.200001 88.156 23.1322
48.700001 88.164 22.5752
49.400002 88.167 21.7858
50.000000 88.161 21.1576
50.799999 88.156 20.4265
51.500000 88.162 19.8104
52.200001 88.171 19.1476
53.000000 88.173 18.3631
53.799999 88.169 17.6062
54.500000 88.163 16.9694
55.200001 88.157 16.3498
56.000000 88.151 15.6541
57.000000 88.143 14.7854
58.000000 88.132 13.9243
59.000000 88.117 13.0918
60.000000 88.102 12.2977
60.799999 88.090 11.6699
61.500000 88.078 11.1183
62.200001 88.062 10.5846
63.000000 88.042 10.0141
64.000000 88.023 9.3190
65.000000 88.002 8.6051
66.000000 87.977 7.9160
67.000000 87.953 7.2552
68.000000 87.930 6.5869
69.000000 87.903 5.9170
70.000000 87.871 5.2750
71.000000 87.840 4.6577
72.000000 87.808 4.0413
73.000000 87.771 3.4345
74.000000 87.729 2.8520
75.000000 87.683 2.3073
76.199997 87.624 1.7141
77.500000 87.560 1.1317
78.800003 87.491 0.6183
80.000000 87.427 0.2661
81.199997 87.376 0.0293
82.500000 87.342 -0.1616
83.800003 87.335 -0.3547
85.000000 87.345 -0.6274
86.199997 87.362 -1.0227
87.500000 87.374 -1.5715
88.500000 87.376 -2.0445
90.000000 87.369 -2.7826
91.199997 87.354 -3.3764
92.500000 87.330 -4.0050
93.800003 87.297 -4.6084
95.000000 87.261 -5.1457
96.199997 87.220 -5.6720
97.500000 87.171 -6.2368
98.800003 87.119 -6.7700
100.000000 87.074 -7.2222
101.500000 87.027 -7.7260
103.000000 86.992 -8.2285
104.400002 86.957 -8.7138
106.000000 86.909 -9.2444
107.500000 86.861 -9.7357
109.000000 86.808 -10.2397
110.599998 86.751 -10.7840
112.000000 86.701 -11.2647
113.800003 86.635 -11.8732
115.000000 86.588 -12.2559
117.199997 86.496 -12.8944
118.000000 86.460 -13.1089
120.599998 86.342 -13.7700
122.000000 86.280 -14.1202
124.099998 86.192 -14.6422
125.000000 86.155 -14.8563
126.500000 86.093 -15.1950
128.000000 86.026 -15.5186
131.500000 85.856 -16.3476
132.000000 85.830 -16.4850
134.000000 85.717 -16.9846
136.000000 85.620 -17.2190
138.000000 85.554 -17.4106
140.000000 85.476 -17.6281
143.000000 85.329 -17.9296
145.000000 85.226 -18.1325
147.500000 85.104 -18.3127
150.000000 84.995 -18.3786
152.500000 84.905 -18.4368
155.000000 84.815 -18.5831
157.500000 84.710 -18.6419
160.000000 84.605 -18.6078
162.500000 84.521 -18.6057
165.000000 84.474 -18.6207
167.500000 84.450 -18.7076
170.000000 84.373 -18.8083
172.500000 84.274 -18.7920
175.000000 84.190 -18.8885
177.500000 84.117 -19.0445
180.000000 84.039 -19.1576
182.500000 83.950 -19.2565
185.000000 83.859 -19.3648
187.500000 83.772 -19.4606
190.000000 83.683 -19.5130
192.500000 83.590 -19.5290
195.000000 83.494 -19.5303
197.500000 83.400 -19.5123
200.000000 83.308 -19.4585
203.000000 83.196 -19.3217
206.000000 83.084 -19.1169
209.000000 82.973 -18.8693
212.000000 82.866 -18.5591
214.000000 82.799 -18.3095
218.000000 82.675 -17.7406
220.000000 82.619 -17.4274
224.000000 82.526 -16.7518
227.000000 82.476 -16.2385
230.000000 82.444 -15.7749
233.000000 82.424 -15.3967
236.000000 82.406 -15.1264
240.000000 82.378 -14.9267
243.000000 82.346 -14.8304
247.000000 82.288 -14.7176
250.000000 82.237 -14.6146
254.000000 82.170 -14.4202
258.000000 82.099 -14.1810
262.000000 82.025 -13.9072
265.000000 81.973 -13.6962
269.000000 81.906 -13.3970
272.000000 81.857 -13.1531
276.000000 81.794 -12.8073
280.000000 81.733 -12.4467
285.000000 81.661 -11.9921
290.000000 81.592 -11.5099
295.000000 81.529 -11.0290
300.000000 81.472 -10.5377
304.000000 81.428 -10.1526
307.000000 81.396 -9.8675
311.000000 81.356 -9.4808
315.000000 81.320 -9.0844
320.000000 81.277 -8.5868
325.000000 81.235 -8.0972
330.000000 81.197 -7.6238
335.000000 81.163 -7.1570
340.000000 81.131 -6.6917
345.000000 81.100 -6.2270
350.000000 81.070 -5.7700
355.000000 81.046 -5.3162
360.000000 81.024 -4.8644
365.000000 81.002 -4.4196
370.000000 80.982 -3.9787
375.000000 80.964 -3.5473
382.000000 80.941 -2.9560
387.000000 80.927 -2.5491
395.000000 80.907 -1.9235
400.000000 80.894 -1.5320
406.000000 80.880 -1.0670
412.000000 80.869 -0.6155
418.000000 80.858 -0.1686
425.000000 80.846 0.3492
431.000000 80.838 0.7847
437.000000 80.831 1.2103
444.000000 80.823 1.6866
450.000000 80.816 2.0906
455.000000 80.812 2.4379
462.000000 80.805 2.9163
468.000000 80.800 3.3100
475.000000 80.796 3.7526
482.000000 80.791 4.1958
487.000000 80.788 4.5155
494.000000 80.785 4.9530
500.000000 80.784 5.3189
508.000000 80.782 5.8062
515.000000 80.780 6.2293
522.000000 80.778 6.6550
530.000000 80.777 7.1437
538.000000 80.778 7.6263
545.000000 80.778 8.0484
552.000000 80.778 8.4625
560.000000 80.778 8.9191
570.000000 80.781 9.4985
580.000000 80.784 10.0886
590.000000 80.788 10.6731
600.000000 80.794 11.2614
608.000000 80.800 11.7338
615.000000 80.805 12.1449
622.000000 80.810 12.5530
630.000000 80.817 13.0154
640.000000 80.828 13.5885
650.000000 80.840 14.1612
660.000000 80.852 14.7490
670.000000 80.865 15.3444
680.000000 80.881 15.9365
690.000000 80.899 16.5228
700.000000 80.917 17.1060
710.000000 80.938 17.6941
720.000000 80.961 18.2892
730.000000 80.986 18.8843
740.000000 81.013 19.4776
750.000000 81.042 20.0720
762.000000 81.078 20.7849
775.000000 81.121 21.5489
788.000000 81.170 22.3013
800.000000 81.218 22.9957
812.000000 81.269 23.6892
825.000000 81.330 24.4298
838.000000 81.394 25.1553
850.000000 81.456 25.8078
862.000000 81.522 26.4475
875.000000 81.598 27.1202
885.000000 81.660 27.6204
900.000000 81.756 28.3529
912.000000 81.834 28.9191
925.000000 81.923 29.5078
938.000000 82.016 30.0636
950.000000 82.103 30.5499
962.000000 82.192 31.0086
975.000000 82.289 31.4752
988.000000 82.388 31.9135
1000.000000 82.479 32.2907
1015.000000 82.594 32.7223
1030.000000 82.709 33.1177
1044.000000 82.815 33.4562
1060.000000 82.937 33.7953
1075.000000 83.049 34.0750
1090.000000 83.160 34.3313
1106.000000 83.274 34.5692
1120.000000 83.372 34.7505
1138.000000 83.495 34.9516
1150.000000 83.575 35.0712
1172.000000 83.718 35.2664
1180.000000 83.768 35.3288
1206.000000 83.926 35.5044
1220.000000 84.008 35.5875
1241.000000 84.126 35.6986
1250.000000 84.175 35.7424
1265.000000 84.256 35.8141
1280.000000 84.335 35.8838
1315.000000 84.511 36.0377
1320.000000 84.536 36.0598
1340.000000 84.633 36.1497
1360.000000 84.728 36.2448
1380.000000 84.822 36.3497
1400.000000 84.915 36.4621
1430.000000 85.054 36.6442
1450.000000 85.146 36.7794
1475.000000 85.264 36.9748
1500.000000 85.390 37.1897
1525.000000 85.529 37.3889
1550.000000 85.677 37.5139
1575.000000 85.826 37.5401
1600.000000 85.969 37.4978
1625.000000 86.106 37.4307
1650.000000 86.240 37.3531
1675.000000 86.373 37.2613
1700.000000 86.508 37.1535
1725.000000 86.644 37.0258
1750.000000 86.780 36.8675
1775.000000 86.918 36.6726
1800.000000 87.055 36.4406
1825.000000 87.193 36.1679
1850.000000 87.332 35.8472
1875.000000 87.469 35.4777
1900.000000 87.605 35.0588
1925.000000 87.739 34.5879
1950.000000 87.871 34.0621
1975.000000 87.999 33.4820
2000.000000 88.122 32.8451
2030.000000 88.261 32.0075
2060.000000 88.391 31.0987
2090.000000 88.508 30.1220
2120.000000 88.613 29.0839
2140.000000 88.675 28.3617
2180.000000 88.779 26.8570
2200.000000 88.821 26.0817
2240.000000 88.881 24.4994
2270.000000 88.906 23.3031
2300.000000 88.912 22.1170
2330.000000 88.901 20.9525
2360.000000 88.873 19.8238
2400.000000 88.809 18.4095
2430.000000 88.744 17.4410
2470.000000 88.640 16.2958
2500.000000 88.554 15.5576
2540.000000 88.436 14.7193
2580.000000 88.319 13.9964
2620.000000 88.198 13.3386
2650.000000 88.101 12.8917
2690.000000 87.959 12.4093
2720.000000 87.845 12.1744
2760.000000 87.694 12.0668
2800.000000 87.559 12.1865
2850.000000 87.433 12.5392
2900.000000 87.361 12.8752
2950.000000 87.315 12.9986
3000.000000 87.257 12.9404
3040.000000 87.191 12.8827
3070.000000 87.132 12.8847
3110.000000 87.047 12.9832
3150.000000 86.960 13.2028
3200.000000 86.860 13.6340
3250.000000 86.774 14.2288
3300.000000 86.712 14.9684
3350.000000 86.682 15.7965
3400.000000 86.684 16.6229
3450.000000 86.715 17.3744
3500.000000 86.766 18.0222
3550.000000 86.831 18.5658
3600.000000 86.904 19.0109
3650.000000 86.984 19.3679
3700.000000 87.069 19.6435
3750.000000 87.157 19.8440
3820.000000 87.283 20.0269
3870.000000 87.378 20.1042
3950.000000 87.546 20.1291
4000.000000 87.665 20.0549
4060.000000 87.821 19.8293
4120.000000 87.991 19.4153
4180.000000 88.172 18.7591
4250.000000 88.387 17.5956
4310.000000 88.559 16.1981
4370.000000 88.702 14.4177
4440.000000 88.807 11.8901
4500.000000 88.824 9.4244
4550.000000 88.776 7.2578
4620.000000 88.611 4.2348
4680.000000 88.382 1.8020
4750.000000 88.023 -0.7089
4820.000000 87.575 -2.7334
4870.000000 87.207 -3.7868
4940.000000 86.643 -4.5668
5000.000000 86.140 -4.5123
5080.000000 85.494 -3.4188
5150.000000 84.990 -1.6333
5220.000000 84.571 0.7539
5300.000000 84.218 4.0000
5380.000000 84.012 7.5749
5450.000000 83.964 10.7881
5520.000000 84.047 13.8799
5600.000000 84.299 16.9552
5700.000000 84.817 19.5217
5800.000000 85.447 19.9175
5900.000000 85.987 17.7341
6000.000000 86.223 13.5616
6080.000000 86.120 9.8135
6150.000000 85.831 6.9921
6220.000000 85.408 5.0347
6300.000000 84.840 4.0475
6400.000000 84.126 4.5365
6500.000000 83.506 6.4636
6600.000000 83.022 9.2767
6700.000000 82.672 12.5700
6800.000000 82.439 16.2008
6900.000000 82.336 20.0586
7000.000000 82.368 23.9299
7100.000000 82.528 27.6317
7200.000000 82.807 31.0081
7300.000000 83.192 33.9272
7400.000000 83.674 36.2810
7500.000000 84.245 37.9470
7620.000000 85.029 38.7644
7750.000000 85.938 37.6994
7880.000000 86.762 34.1845
8000.000000 87.280 28.9363
8120.000000 87.442 22.7231
8250.000000 87.203 16.6268
8380.000000 86.684 12.6935
8500.000000 86.185 11.3106
8620.000000 85.874 11.4147
8750.000000 85.877 11.6069
8850.000000 86.053 10.5903
9000.000000 86.245 6.2961
9120.000000 86.096 1.6358
9250.000000 85.634 -2.6535
9380.000000 85.054 -5.3959
9500.000000 84.564 -7.0003
9620.000000 84.158 -8.4437
9750.000000 83.761 -10.4070
9880.000000 83.310 -12.9054
10000.000000 82.770 -15.3418
10150.000000 81.891 -17.6745
10300.000000 80.854 -18.3097
10440.000000 79.876 -17.0913
10600.000000 78.909 -13.9842
10750.000000 78.241 -10.1835
10900.000000 77.819 -6.2874
11060.000000 77.588 -2.6077
11200.000000 77.514 -0.0533
11380.000000 77.512 2.1686
11500.000000 77.525 3.0373
11720.000000 77.510 3.7226
11800.000000 77.487 3.7826
12060.000000 77.344 3.7553
12200.000000 77.244 3.8076
12410.000000 77.115 4.1216
12500.000000 77.082 4.3310
12650.000000 77.077 4.7128
12800.000000 77.150 5.0295
13150.000000 77.685 4.5538
13200.000000 77.807 4.2291
13400.000000 78.388 1.8528
13600.000000 79.048 -2.8507
13800.000000 79.615 -10.4761
14000.000000 79.873 -20.8523
14300.000000 79.348 -38.5929
14500.000000 78.393 -49.0875
14750.000000 76.786 -58.5163
15000.000000 75.104 -63.8420
15250.000000 73.670 -66.2624
15500.000000 72.677 -67.2888
15750.000000 72.209 -68.8656
16000.000000 72.057 -73.0690
16250.000000 71.777 -78.9437
16500.000000 71.602 -83.1688
16750.000000 72.265 -87.9799
17000.000000 73.354 -99.1811
17250.000000 74.203 -116.4490
17500.000000 74.665 -138.7321
17750.000000 74.444 -164.6947
18000.000000 73.497 168.7974
18250.000000 72.018 143.5233
18500.000000 70.235 119.5478
18750.000000 68.299 96.1441
19000.000000 66.261 72.5440
19250.000000 64.103 48.2694
19500.000000 61.775 23.5074
19750.000000 59.333 0.7336
