* Measurement data measured by REW V5.20.9
* Source: Headset (USB-C to 3.5mm Headphone Jack Adapter), MICROPHONE (Master Volume), L, volume: 0.250. Timing signal peak level -28.4 dBFS, measurement signal peak level -27.3 dBFS
* Format: 256k Log Swept Sine, 1 sweep at -12.0 dBFS using an acoustic timing reference
* Dated: 27/10/2023 9:21:59 PM
* REW Settings:
*  C-weighting compensation: Off
*  Target level: 75.0 dB
* Note: ; Delay -0.0735 ms (-25 mm, -0.99 in) using estimated IR delay relative to Acoustic reference on SPEAKER L with no timing offset
* Measurement: Canon 2 10 L
* Smoothing: 1/24 octave
* Frequency Step: 1/48 octave
* Start Frequency: 1.000 Hz
*
* Freq(Hz) SPL(dB) Phase(degrees)
1.000000 35.577 -84.4025
1.015000 35.801 -82.0401
1.030000 36.027 -79.8472
1.044000 36.242 -77.9679
1.060000 36.491 -76.0355
1.075000 36.728 -74.4495
1.090000 36.968 -73.0986
1.106000 37.228 -71.9328
1.120000 37.465 -71.1361
1.138000 37.781 -70.3966
1.150000 38.000 -70.0704
1.172000 38.414 -69.7914
1.180000 38.568 -69.7851
1.206000 39.081 -70.0802
1.220000 39.364 -70.4200
1.241000 39.795 -71.1352
1.250000 39.981 -71.5089
1.265000 40.293 -72.2097
1.280000 40.607 -72.9955
1.315000 41.339 -75.0795
1.320000 41.443 -75.3980
1.340000 41.857 -76.7028
1.360000 42.266 -78.0313
1.380000 42.666 -79.3496
1.400000 43.058 -80.6236
1.430000 43.621 -82.3771
1.450000 43.979 -83.3915
1.475000 44.402 -84.4580
1.500000 44.812 -85.5405
1.525000 45.210 -86.6928
1.550000 45.597 -87.9032
1.575000 45.975 -89.1604
1.600000 46.343 -90.4528
1.625000 46.703 -91.7689
1.650000 47.054 -93.0970
1.675000 47.398 -94.4259
1.700000 47.734 -95.7438
1.725000 48.064 -97.0393
1.750000 48.388 -98.3010
1.775000 48.707 -99.5171
1.800000 49.021 -100.6764
1.825000 49.331 -101.7671
1.850000 49.635 -102.7867
1.875000 49.931 -103.7536
1.900000 50.219 -104.6749
1.925000 50.499 -105.5565
1.950000 50.772 -106.4047
1.975000 51.039 -107.2256
2.000000 51.301 -108.0254
2.030000 51.607 -108.9657
2.060000 51.907 -109.8951
2.090000 52.202 -110.8239
2.120000 52.492 -111.7630
2.140000 52.683 -112.4000
2.180000 53.062 -113.7141
2.200000 53.251 -114.3975
2.240000 53.621 -115.8056
2.270000 53.892 -116.8862
2.300000 54.157 -117.9814
2.330000 54.416 -119.0853
2.360000 54.671 -120.1920
2.400000 55.004 -121.6620
2.430000 55.249 -122.7527
2.470000 55.570 -124.1801
2.500000 55.808 -125.2228
2.540000 56.120 -126.5649
2.580000 56.427 -127.8412
2.620000 56.728 -129.0600
2.650000 56.949 -129.9429
2.690000 57.238 -131.0851
2.720000 57.451 -131.9198
2.760000 57.729 -133.0101
2.800000 58.003 -134.0822
2.850000 58.339 -135.4088
2.900000 58.669 -136.7354
2.950000 58.994 -138.0755
3.000000 59.312 -139.4156
3.040000 59.561 -140.4818
3.070000 59.744 -141.2762
3.110000 59.986 -142.3269
3.150000 60.223 -143.3654
3.200000 60.516 -144.6430
3.250000 60.804 -145.8932
3.300000 61.088 -147.1116
3.350000 61.367 -148.2960
3.400000 61.641 -149.4500
3.450000 61.909 -150.5778
3.500000 62.173 -151.6833
3.550000 62.433 -152.7706
3.600000 62.690 -153.8438
3.650000 62.943 -154.9070
3.700000 63.192 -155.9602
3.750000 63.438 -156.9968
3.820000 63.775 -158.4217
3.870000 64.011 -159.4224
3.950000 64.383 -160.9977
4.000000 64.611 -161.9680
4.060000 64.881 -163.1191
4.120000 65.147 -164.2528
4.180000 65.408 -165.3692
4.250000 65.708 -166.6506
4.310000 65.960 -167.7317
4.370000 66.208 -168.7979
4.440000 66.494 -170.0219
4.500000 66.734 -171.0512
4.550000 66.931 -171.8965
4.620000 67.202 -173.0637
4.680000 67.432 -174.0517
4.750000 67.695 -175.1932
4.820000 67.953 -176.3238
4.870000 68.135 -177.1229
4.940000 68.386 -178.2293
5.000000 68.597 -179.1659
5.080000 68.874 179.6031
5.150000 69.112 178.5433
5.220000 69.346 177.5013
5.300000 69.608 176.3304
5.380000 69.865 175.1774
5.450000 70.086 174.1806
5.520000 70.304 173.1930
5.600000 70.548 172.0778
5.700000 70.847 170.7047
5.800000 71.139 169.3545
5.900000 71.424 168.0267
6.000000 71.702 166.7232
6.080000 71.920 165.6964
6.150000 72.107 164.8081
6.220000 72.292 163.9283
6.300000 72.499 162.9332
6.400000 72.752 161.7061
6.500000 72.999 160.4976
6.600000 73.241 159.3074
6.700000 73.476 158.1354
6.800000 73.706 156.9818
6.900000 73.930 155.8467
7.000000 74.149 154.7303
7.100000 74.363 153.6325
7.200000 74.572 152.5533
7.300000 74.776 151.4927
7.400000 74.975 150.4511
7.500000 75.170 149.4287
7.620000 75.398 148.2255
7.750000 75.640 146.9501
7.880000 75.875 145.7059
8.000000 76.088 144.5806
8.120000 76.296 143.4739
8.250000 76.516 142.2991
8.380000 76.732 141.1436
8.500000 76.927 140.0902
8.620000 77.118 139.0518
8.750000 77.320 137.9400
8.850000 77.473 137.0917
9.000000 77.696 135.8323
9.120000 77.870 134.8366
9.250000 78.054 133.7692
9.380000 78.232 132.7136
9.500000 78.392 131.7528
9.620000 78.548 130.8064
9.750000 78.712 129.7963
9.880000 78.872 128.8050
10.000000 79.016 127.9086
10.150000 79.192 126.8112
10.300000 79.364 125.7380
10.440000 79.522 124.7604
10.600000 79.699 123.6629
10.750000 79.863 122.6489
10.900000 80.025 121.6486
11.060000 80.195 120.5828
11.200000 80.341 119.6532
11.380000 80.526 118.4544
11.500000 80.645 117.6499
11.720000 80.858 116.1719
11.800000 80.931 115.6337
12.060000 81.161 113.8892
12.200000 81.276 112.9663
12.410000 81.439 111.6079
12.500000 81.506 111.0447
12.650000 81.612 110.1276
12.800000 81.715 109.2444
13.150000 81.946 107.3333
13.200000 81.979 107.0749
13.400000 82.110 106.0829
13.600000 82.244 105.1294
13.800000 82.382 104.2082
14.000000 82.524 103.2892
14.300000 82.741 101.8980
14.500000 82.886 100.9403
14.750000 83.064 99.7063
15.000000 83.236 98.4321
15.250000 83.397 97.1319
15.500000 83.547 95.8264
15.750000 83.685 94.5296
16.000000 83.811 93.2611
16.250000 83.929 92.0345
16.500000 84.037 90.8566
16.750000 84.140 89.7347
17.000000 84.238 88.6699
17.250000 84.334 87.6598
17.500000 84.429 86.7006
17.750000 84.525 85.7797
18.000000 84.623 84.8870
18.250000 84.723 84.0114
18.500000 84.823 83.1385
18.750000 84.924 82.2634
19.000000 85.023 81.3817
19.250000 85.120 80.4944
19.500000 85.212 79.6058
19.750000 85.301 78.7197
20.000000 85.386 77.8421
20.299999 85.483 76.8041
20.600000 85.575 75.7851
20.900000 85.663 74.7859
21.200001 85.748 73.8062
21.400000 85.802 73.1638
21.799999 85.905 71.9045
22.000000 85.955 71.2876
22.400000 86.050 70.0790
22.700001 86.118 69.1939
23.000000 86.184 68.3269
23.299999 86.248 67.4779
23.600000 86.311 66.6457
24.000000 86.392 65.5587
24.299999 86.452 64.7557
24.700001 86.529 63.6958
25.000000 86.585 62.9082
25.400000 86.657 61.8716
25.799999 86.725 60.8574
26.200001 86.792 59.8661
26.500000 86.841 59.1327
26.900000 86.904 58.1613
27.200001 86.949 57.4380
27.600000 87.004 56.4915
28.000000 87.055 55.5839
28.500000 87.119 54.5119
29.000000 87.186 53.4691
29.500000 87.253 52.4049
30.000000 87.307 51.3344
30.400000 87.340 50.5310
30.700001 87.362 49.9862
31.100000 87.395 49.3348
31.500000 87.440 48.7249
32.000000 87.510 47.9203
32.500000 87.582 47.0042
33.000000 87.639 46.0175
33.500000 87.679 45.0519
34.000000 87.713 44.1569
34.500000 87.747 43.3089
35.000000 87.783 42.4682
35.500000 87.815 41.6278
36.000000 87.844 40.8089
36.500000 87.871 40.0221
37.000000 87.899 39.2561
37.500000 87.927 38.4988
38.200001 87.963 37.4561
38.700001 87.988 36.7285
39.500000 88.023 35.5853
40.000000 88.042 34.8921
40.599998 88.062 34.0969
41.200001 88.083 33.3259
41.799999 88.103 32.5549
42.500000 88.119 31.6836
43.099998 88.134 30.9991
43.700001 88.157 30.3302
44.400002 88.189 29.4807
45.000000 88.207 28.7019
45.500000 88.213 28.0741
46.200001 88.217 27.2711
46.799999 88.223 26.6321
47.500000 88.233 25.8937
48.200001 88.242 25.1410
48.700001 88.244 24.6058
49.400002 88.242 23.8996
50.000000 88.242 23.3469
50.799999 88.253 22.6287
51.500000 88.268 21.9582
52.200001 88.282 21.2363
53.000000 88.287 20.3819
53.799999 88.278 19.5951
54.500000 88.271 19.0230
55.200001 88.278 18.5106
56.000000 88.299 17.8880
57.000000 88.323 16.9771
58.000000 88.317 16.0380
59.000000 88.295 15.2509
60.000000 88.277 14.5064
60.799999 88.256 13.9190
61.500000 88.238 13.4515
62.200001 88.225 12.9890
63.000000 88.213 12.4270
64.000000 88.197 11.6976
65.000000 88.176 10.9638
66.000000 88.153 10.2976
67.000000 88.142 9.6672
68.000000 88.133 8.9805
69.000000 88.115 8.2810
70.000000 88.088 7.6367
71.000000 88.060 7.0550
72.000000 88.034 6.4997
73.000000 88.009 5.9750
74.000000 87.990 5.4573
75.000000 87.974 4.8929
76.199997 87.947 4.1709
77.500000 87.905 3.4293
78.800003 87.862 2.7747
80.000000 87.829 2.1948
81.199997 87.795 1.6002
82.500000 87.755 0.9257
83.800003 87.710 0.2663
85.000000 87.676 -0.3304
86.199997 87.650 -0.9744
87.500000 87.622 -1.7868
88.500000 87.572 -2.3896
90.000000 87.491 -2.8135
91.199997 87.465 -3.0493
92.500000 87.439 -3.4221
93.800003 87.398 -3.8269
95.000000 87.353 -4.1875
96.199997 87.309 -4.5608
97.500000 87.263 -4.9880
98.800003 87.219 -5.4302
100.000000 87.179 -5.8408
101.500000 87.128 -6.3230
103.000000 87.078 -6.8114
104.400002 87.025 -7.2774
106.000000 86.962 -7.8006
107.500000 86.904 -8.2826
109.000000 86.849 -8.7757
110.599998 86.782 -9.2784
112.000000 86.723 -9.6185
113.800003 86.657 -10.0288
115.000000 86.613 -10.3204
117.199997 86.523 -10.8381
118.000000 86.489 -11.0150
120.599998 86.380 -11.5662
122.000000 86.323 -11.8566
124.099998 86.237 -12.3094
125.000000 86.199 -12.4939
126.500000 86.136 -12.7790
128.000000 86.073 -13.0499
131.500000 85.912 -13.6230
132.000000 85.888 -13.6983
134.000000 85.793 -13.9904
136.000000 85.707 -14.2949
138.000000 85.622 -14.6149
140.000000 85.531 -14.8863
143.000000 85.388 -15.2061
145.000000 85.296 -15.4054
147.500000 85.184 -15.6472
150.000000 85.069 -15.8367
152.500000 84.943 -15.9269
155.000000 84.819 -15.9735
157.500000 84.698 -16.0286
160.000000 84.574 -16.0282
162.500000 84.446 -15.8957
165.000000 84.319 -15.6044
167.500000 84.206 -15.1805
170.000000 84.124 -14.6936
172.500000 84.078 -14.2386
175.000000 84.061 -13.9052
177.500000 84.055 -13.7797
180.000000 84.038 -13.8394
182.500000 84.002 -13.9880
185.000000 83.950 -14.1523
187.500000 83.885 -14.3040
190.000000 83.813 -14.4249
192.500000 83.736 -14.4958
195.000000 83.654 -14.5106
197.500000 83.574 -14.4933
200.000000 83.496 -14.4719
203.000000 83.400 -14.3957
206.000000 83.302 -14.2279
209.000000 83.206 -14.0463
212.000000 83.113 -13.8622
214.000000 83.054 -13.7249
218.000000 82.937 -13.4024
220.000000 82.879 -13.2273
224.000000 82.766 -12.8565
227.000000 82.683 -12.5491
230.000000 82.602 -12.2169
233.000000 82.526 -11.8567
236.000000 82.454 -11.4791
240.000000 82.363 -10.9469
243.000000 82.303 -10.5283
247.000000 82.233 -9.9956
250.000000 82.184 -9.6218
254.000000 82.125 -9.1367
258.000000 82.067 -8.6630
262.000000 82.009 -8.1780
265.000000 81.967 -7.8176
269.000000 81.912 -7.3527
272.000000 81.870 -7.0095
276.000000 81.816 -6.5464
280.000000 81.766 -6.0755
285.000000 81.706 -5.4661
290.000000 81.648 -4.8384
295.000000 81.594 -4.2113
300.000000 81.545 -3.6163
304.000000 81.509 -3.1310
307.000000 81.485 -2.7647
311.000000 81.453 -2.2819
315.000000 81.422 -1.8017
320.000000 81.386 -1.2058
325.000000 81.350 -0.6168
330.000000 81.317 -0.0396
335.000000 81.289 0.5432
340.000000 81.262 1.1194
345.000000 81.235 1.6955
350.000000 81.208 2.2860
355.000000 81.178 2.8817
360.000000 81.149 3.5050
365.000000 81.126 4.1719
370.000000 81.113 4.8775
375.000000 81.116 5.6001
382.000000 81.146 6.5447
387.000000 81.177 7.0904
395.000000 81.219 7.7332
400.000000 81.235 8.0587
406.000000 81.243 8.4344
412.000000 81.245 8.8310
418.000000 81.242 9.2500
425.000000 81.235 9.7563
431.000000 81.229 10.1977
437.000000 81.226 10.6455
444.000000 81.223 11.1629
450.000000 81.221 11.6069
455.000000 81.218 11.9887
462.000000 81.215 12.5214
468.000000 81.212 12.9687
475.000000 81.210 13.4894
482.000000 81.209 14.0040
487.000000 81.208 14.3659
494.000000 81.208 14.8736
500.000000 81.209 15.3088
508.000000 81.208 15.8832
515.000000 81.207 16.3850
522.000000 81.207 16.8882
530.000000 81.207 17.4584
538.000000 81.208 18.0278
545.000000 81.210 18.5245
552.000000 81.211 19.0231
560.000000 81.213 19.5922
570.000000 81.214 20.3007
580.000000 81.217 21.0210
590.000000 81.221 21.7317
600.000000 81.225 22.4312
608.000000 81.230 23.0066
615.000000 81.235 23.5191
622.000000 81.241 24.0289
630.000000 81.248 24.6071
640.000000 81.258 25.3334
650.000000 81.269 26.0726
660.000000 81.280 26.8053
670.000000 81.293 27.5312
680.000000 81.308 28.2604
690.000000 81.324 28.9969
700.000000 81.342 29.7374
710.000000 81.361 30.4900
720.000000 81.381 31.2443
730.000000 81.403 31.9941
740.000000 81.429 32.7451
750.000000 81.458 33.5059
762.000000 81.494 34.4204
775.000000 81.537 35.3987
788.000000 81.585 36.3762
800.000000 81.634 37.2778
812.000000 81.686 38.1653
825.000000 81.747 39.1185
838.000000 81.812 40.0672
850.000000 81.876 40.9292
862.000000 81.943 41.7709
875.000000 82.020 42.6714
885.000000 82.083 43.3509
900.000000 82.181 44.3444
912.000000 82.263 45.1208
925.000000 82.356 45.9336
938.000000 82.453 46.7124
950.000000 82.544 47.4003
962.000000 82.636 48.0603
975.000000 82.738 48.7411
988.000000 82.842 49.3876
1000.000000 82.938 49.9578
1015.000000 83.058 50.6296
1030.000000 83.177 51.2547
1044.000000 83.289 51.7972
1060.000000 83.415 52.3760
1075.000000 83.532 52.8828
1090.000000 83.645 53.3557
1106.000000 83.762 53.8236
1120.000000 83.862 54.2108
1138.000000 83.987 54.6845
1150.000000 84.068 54.9795
1172.000000 84.212 55.4889
1180.000000 84.262 55.6682
1206.000000 84.420 56.2320
1220.000000 84.502 56.5259
1241.000000 84.621 56.9551
1250.000000 84.670 57.1364
1265.000000 84.751 57.4351
1280.000000 84.829 57.7327
1315.000000 85.006 58.4283
1320.000000 85.031 58.5275
1340.000000 85.129 58.9263
1360.000000 85.225 59.3281
1380.000000 85.320 59.7350
1400.000000 85.414 60.1418
1430.000000 85.554 60.7480
1450.000000 85.648 61.1552
1475.000000 85.764 61.6665
1500.000000 85.882 62.1762
1525.000000 86.002 62.6757
1550.000000 86.123 63.1721
1575.000000 86.245 63.6568
1600.000000 86.371 64.1238
1625.000000 86.498 64.5768
1650.000000 86.628 65.0088
1675.000000 86.760 65.4194
1700.000000 86.894 65.8044
1725.000000 87.030 66.1564
1750.000000 87.168 66.4765
1775.000000 87.307 66.7591
1800.000000 87.448 67.0020
1825.000000 87.590 67.2047
1850.000000 87.732 67.3619
1875.000000 87.874 67.4715
1900.000000 88.017 67.5287
1925.000000 88.158 67.5302
1950.000000 88.296 67.4787
1975.000000 88.432 67.3730
2000.000000 88.565 67.2126
2030.000000 88.718 66.9491
2060.000000 88.864 66.6081
2090.000000 89.000 66.1915
2120.000000 89.126 65.7058
2140.000000 89.204 65.3454
2180.000000 89.342 64.5461
2200.000000 89.402 64.1118
2240.000000 89.501 63.1854
2270.000000 89.556 62.4540
2300.000000 89.596 61.7059
2330.000000 89.618 60.9527
2360.000000 89.623 60.2061
2400.000000 89.605 59.2425
2430.000000 89.573 58.5589
2470.000000 89.509 57.7253
2500.000000 89.446 57.1702
2540.000000 89.342 56.5331
2580.000000 89.222 56.0218
2620.000000 89.086 55.6462
2650.000000 88.977 55.4603
2690.000000 88.823 55.3470
2720.000000 88.703 55.3633
2760.000000 88.540 55.5211
2800.000000 88.378 55.8359
2850.000000 88.179 56.4497
2900.000000 87.994 57.2952
2950.000000 87.832 58.3227
3000.000000 87.699 59.4520
3040.000000 87.608 60.3670
3070.000000 87.547 61.0445
3110.000000 87.470 61.9433
3150.000000 87.396 62.8592
3200.000000 87.309 64.0522
3250.000000 87.229 65.2971
3300.000000 87.159 66.5871
3350.000000 87.098 67.9162
3400.000000 87.046 69.2850
3450.000000 87.001 70.7075
3500.000000 86.967 72.2064
3550.000000 86.952 73.7828
3600.000000 86.964 75.4006
3650.000000 87.004 76.9914
3700.000000 87.068 78.5025
3750.000000 87.151 79.9093
3820.000000 87.290 81.6918
3870.000000 87.402 82.8345
3950.000000 87.602 84.4433
4000.000000 87.739 85.3035
4060.000000 87.915 86.1659
4120.000000 88.101 86.8099
4180.000000 88.295 87.1974
4250.000000 88.522 87.2683
4310.000000 88.707 86.9567
4370.000000 88.869 86.2723
4440.000000 89.005 85.0026
4500.000000 89.055 83.5681
4550.000000 89.038 82.2073
4620.000000 88.912 80.2237
4680.000000 88.706 78.6387
4750.000000 88.365 77.1524
4820.000000 87.938 76.2248
4870.000000 87.596 75.9603
4940.000000 87.085 76.1770
5000.000000 86.633 76.9242
5080.000000 86.038 78.7420
5150.000000 85.553 81.0800
5220.000000 85.133 84.0242
5300.000000 84.764 87.9351
5380.000000 84.532 92.1747
5450.000000 84.452 95.9409
5520.000000 84.490 99.5523
5600.000000 84.673 103.1818
5700.000000 85.066 106.3644
5800.000000 85.508 107.3904
5900.000000 85.789 106.1691
6000.000000 85.733 103.6597
6080.000000 85.419 101.8064
6150.000000 84.988 100.8977
6220.000000 84.466 100.8910
6300.000000 83.826 102.0063
6400.000000 83.052 104.8513
6500.000000 82.368 108.8953
6600.000000 81.802 113.7357
6700.000000 81.358 119.1132
6800.000000 81.036 124.8041
6900.000000 80.827 130.6354
7000.000000 80.722 136.5285
7100.000000 80.723 142.3943
7200.000000 80.824 148.1154
7300.000000 81.020 153.5887
7400.000000 81.302 158.7451
7500.000000 81.665 163.5251
7620.000000 82.206 168.6576
7750.000000 82.913 173.1986
7880.000000 83.700 176.2221
8000.000000 84.409 177.3284
8120.000000 84.979 176.7874
8250.000000 85.298 174.9593
8380.000000 85.233 173.3378
8500.000000 84.908 173.6418
8620.000000 84.559 176.5479
8750.000000 84.503 -177.9837
8850.000000 84.830 -173.4160
9000.000000 85.849 -168.4858
9120.000000 86.846 -167.6920
9250.000000 87.764 -170.2753
9380.000000 88.305 -175.1457
9500.000000 88.463 179.9597
9620.000000 88.397 175.6174
9750.000000 88.198 171.5787
9880.000000 87.915 167.7366
10000.000000 87.539 164.0899
10150.000000 86.822 159.8289
10300.000000 85.808 157.0897
10440.000000 84.706 156.7699
10600.000000 83.478 158.9917
10750.000000 82.525 162.7318
10900.000000 81.819 167.1270
11060.000000 81.304 171.7730
11200.000000 80.997 175.4457
11380.000000 80.723 179.4498
11500.000000 80.579 -178.3182
11720.000000 80.334 -175.0218
11800.000000 80.237 -174.0298
12060.000000 79.858 -171.1252
12200.000000 79.618 -169.5001
12410.000000 79.258 -166.6984
12500.000000 79.122 -165.3528
12650.000000 78.943 -162.9636
12800.000000 78.846 -160.5108
13150.000000 79.047 -155.7074
13200.000000 79.128 -155.2708
13400.000000 79.567 -154.6312
13600.000000 80.114 -156.4747
13800.000000 80.574 -161.6237
14000.000000 80.671 -169.9802
14300.000000 79.689 175.6241
14500.000000 78.321 168.7371
14750.000000 76.274 165.2931
15000.000000 74.403 166.0660
15250.000000 72.999 168.4776
15500.000000 72.041 170.3490
15750.000000 71.320 170.3338
16000.000000 70.533 168.1929
16250.000000 69.356 166.2330
16500.000000 67.917 168.3880
16750.000000 66.992 174.8069
17000.000000 67.272 -178.0335
17250.000000 68.807 -174.9403
17500.000000 70.666 179.0706
17750.000000 71.967 164.6084
18000.000000 72.627 146.2479
18250.000000 72.891 126.3547
18500.000000 72.938 104.7331
18750.000000 72.791 80.3530
19000.000000 72.334 52.2518
19250.000000 71.351 20.5557
19500.000000 69.658 -12.6830
19750.000000 67.308 -42.5335
