* Measurement data measured by REW V5.20.9
* Source: Frequency Response Averaged data
* Format: Averaged data produced from the rms magnitudes of Chu Jul 13, Chu Jul 13, Chu Jul 13
* Dated: 13/07/2022 7:58:45 PM
* REW Settings:
*  C-weighting compensation: Off
*  Target level: 75.0 dB
* Note: ; Averaged data produced from the rms magnitudes of Chu Jul 13, Chu Jul 13, Chu Jul 13
* Measurement: Chu L
* Smoothing: 1/24 octave
* Frequency Step: 1/48 octave
* Start Frequency: 2.200 Hz
*
* Freq(Hz) SPL(dB)
2.200000 75.529
2.240000 75.737
2.270000 75.893
2.300000 76.049
2.330000 76.205
2.360000 76.361
2.400000 76.569
2.430000 76.725
2.470000 76.933
2.500000 77.089
2.540000 77.297
2.580000 77.512
2.620000 77.747
2.650000 77.930
2.690000 78.180
2.720000 78.370
2.760000 78.621
2.800000 78.869
2.850000 79.166
2.900000 79.441
2.950000 79.688
3.000000 79.910
3.040000 80.073
3.070000 80.189
3.110000 80.336
3.150000 80.478
3.200000 80.650
3.250000 80.821
3.300000 80.996
3.350000 81.173
3.400000 81.346
3.450000 81.517
3.500000 81.684
3.550000 81.847
3.600000 82.006
3.650000 82.161
3.700000 82.311
3.750000 82.456
3.820000 82.652
3.870000 82.788
3.950000 83.000
4.000000 83.129
4.060000 83.283
4.120000 83.433
4.180000 83.579
4.250000 83.745
4.310000 83.885
4.370000 84.022
4.440000 84.179
4.500000 84.311
4.550000 84.419
4.620000 84.567
4.680000 84.691
4.750000 84.833
4.820000 84.971
4.870000 85.066
4.940000 85.197
5.000000 85.307
5.080000 85.450
5.150000 85.572
5.220000 85.692
5.300000 85.824
5.380000 85.953
5.450000 86.063
5.520000 86.171
5.600000 86.291
5.700000 86.437
5.800000 86.578
5.900000 86.716
6.000000 86.851
6.080000 86.956
6.150000 87.046
6.220000 87.135
6.300000 87.235
6.400000 87.358
6.500000 87.477
6.600000 87.594
6.700000 87.707
6.800000 87.818
6.900000 87.926
7.000000 88.030
7.100000 88.131
7.200000 88.229
7.300000 88.323
7.400000 88.415
7.500000 88.503
7.620000 88.606
7.750000 88.714
7.880000 88.817
8.000000 88.910
8.120000 89.002
8.250000 89.098
8.380000 89.192
8.500000 89.277
8.620000 89.360
8.750000 89.447
8.850000 89.510
9.000000 89.603
9.120000 89.672
9.250000 89.741
9.380000 89.806
9.500000 89.860
9.620000 89.910
9.750000 89.959
9.880000 90.004
10.000000 90.043
10.150000 90.087
10.300000 90.132
10.440000 90.174
10.600000 90.223
10.750000 90.274
10.900000 90.327
11.060000 90.387
11.200000 90.443
11.380000 90.516
11.500000 90.564
11.720000 90.652
11.800000 90.681
12.060000 90.773
12.200000 90.818
12.410000 90.880
12.500000 90.905
12.650000 90.946
12.800000 90.985
13.150000 91.077
13.200000 91.090
13.400000 91.142
13.600000 91.191
13.800000 91.236
14.000000 91.272
14.300000 91.310
14.500000 91.323
14.750000 91.330
15.000000 91.330
15.250000 91.333
15.500000 91.345
15.750000 91.366
16.000000 91.398
16.250000 91.435
16.500000 91.473
16.750000 91.508
17.000000 91.538
17.250000 91.564
17.500000 91.587
17.750000 91.609
18.000000 91.632
18.250000 91.655
18.500000 91.673
18.750000 91.684
19.000000 91.684
19.250000 91.672
19.500000 91.650
19.750000 91.621
20.000000 91.592
20.299999 91.564
20.600000 91.551
20.900000 91.557
21.200001 91.581
21.400000 91.602
21.799999 91.649
22.000000 91.669
22.400000 91.690
22.700001 91.688
23.000000 91.673
23.299999 91.651
23.600000 91.631
24.000000 91.615
24.299999 91.614
24.700001 91.625
25.000000 91.634
25.400000 91.635
25.799999 91.623
26.200001 91.609
26.500000 91.609
26.900000 91.629
27.200001 91.658
27.600000 91.694
28.000000 91.697
28.500000 91.623
29.000000 91.476
29.500000 91.318
30.000000 91.201
30.400000 91.124
30.700001 91.054
31.100000 90.935
31.500000 90.811
32.000000 90.741
32.500000 90.824
33.000000 90.971
33.500000 91.038
34.000000 90.989
34.500000 90.931
35.000000 90.970
35.500000 91.079
36.000000 91.148
36.500000 91.126
37.000000 91.058
37.500000 91.011
38.200001 91.004
38.700001 91.007
39.500000 91.014
40.000000 91.033
40.599998 91.064
41.200001 91.088
41.799999 91.095
42.500000 91.043
43.099998 90.940
43.700001 90.837
44.400002 90.777
45.000000 90.771
45.500000 90.778
46.200001 90.809
46.799999 90.864
47.500000 90.940
48.200001 90.974
48.700001 90.933
49.400002 90.774
50.000000 90.617
50.799999 90.510
51.500000 90.490
52.200001 90.451
53.000000 90.386
53.799999 90.337
54.500000 90.303
55.200001 90.273
56.000000 90.242
57.000000 90.206
58.000000 90.167
59.000000 90.090
60.000000 90.023
60.799999 89.972
61.500000 89.910
62.200001 89.854
63.000000 89.811
64.000000 89.776
65.000000 89.746
66.000000 89.672
67.000000 89.586
68.000000 89.541
69.000000 89.498
70.000000 89.447
71.000000 89.387
72.000000 89.298
73.000000 89.206
74.000000 89.149
75.000000 89.108
76.199997 89.048
77.500000 88.979
78.800003 88.940
80.000000 88.937
81.199997 88.872
82.500000 88.843
83.800003 88.865
85.000000 88.706
86.199997 88.552
87.500000 88.402
88.500000 88.283
90.000000 88.215
91.199997 88.245
92.500000 88.388
93.800003 88.461
95.000000 88.312
96.199997 88.090
97.500000 87.959
98.800003 87.996
100.000000 88.166
101.500000 88.242
103.000000 88.216
104.400002 88.128
106.000000 87.917
107.500000 87.794
109.000000 87.702
110.599998 87.626
112.000000 87.588
113.800003 87.510
115.000000 87.450
117.199997 87.367
118.000000 87.340
120.599998 87.295
122.000000 87.298
124.099998 87.242
125.000000 87.193
126.500000 87.100
128.000000 87.034
131.500000 87.135
132.000000 87.113
134.000000 86.914
136.000000 86.760
138.000000 86.634
140.000000 86.526
143.000000 86.505
145.000000 86.553
147.500000 86.610
150.000000 86.650
152.500000 86.647
155.000000 86.629
157.500000 86.627
160.000000 86.644
162.500000 86.657
165.000000 86.655
167.500000 86.620
170.000000 86.568
172.500000 86.527
175.000000 86.490
177.500000 86.458
180.000000 86.424
182.500000 86.383
185.000000 86.338
187.500000 86.295
190.000000 86.252
192.500000 86.206
195.000000 86.159
197.500000 86.115
200.000000 86.079
203.000000 86.036
206.000000 85.989
209.000000 85.941
212.000000 85.895
214.000000 85.866
218.000000 85.811
220.000000 85.785
224.000000 85.733
227.000000 85.694
230.000000 85.657
233.000000 85.620
236.000000 85.581
240.000000 85.534
243.000000 85.503
247.000000 85.469
250.000000 85.443
254.000000 85.397
258.000000 85.358
262.000000 85.336
265.000000 85.326
269.000000 85.315
272.000000 85.305
276.000000 85.290
280.000000 85.269
285.000000 85.239
290.000000 85.206
295.000000 85.171
300.000000 85.137
304.000000 85.111
307.000000 85.092
311.000000 85.068
315.000000 85.045
320.000000 85.017
325.000000 84.990
330.000000 84.963
335.000000 84.938
340.000000 84.915
345.000000 84.895
350.000000 84.875
355.000000 84.852
360.000000 84.831
365.000000 84.811
370.000000 84.792
375.000000 84.774
382.000000 84.751
387.000000 84.735
395.000000 84.713
400.000000 84.701
406.000000 84.686
412.000000 84.670
418.000000 84.655
425.000000 84.640
431.000000 84.628
437.000000 84.614
444.000000 84.595
450.000000 84.579
455.000000 84.572
462.000000 84.563
468.000000 84.554
475.000000 84.543
482.000000 84.534
487.000000 84.527
494.000000 84.518
500.000000 84.512
508.000000 84.504
515.000000 84.495
522.000000 84.488
530.000000 84.483
538.000000 84.476
545.000000 84.470
552.000000 84.468
560.000000 84.469
570.000000 84.468
580.000000 84.464
590.000000 84.463
600.000000 84.466
608.000000 84.470
615.000000 84.475
622.000000 84.480
630.000000 84.486
640.000000 84.498
650.000000 84.513
660.000000 84.518
670.000000 84.529
680.000000 84.546
690.000000 84.563
700.000000 84.583
710.000000 84.606
720.000000 84.631
730.000000 84.655
740.000000 84.679
750.000000 84.710
762.000000 84.756
775.000000 84.807
788.000000 84.861
800.000000 84.916
812.000000 84.976
825.000000 85.045
838.000000 85.116
850.000000 85.189
862.000000 85.271
875.000000 85.368
885.000000 85.445
900.000000 85.568
912.000000 85.664
925.000000 85.731
938.000000 85.706
950.000000 85.608
962.000000 85.523
975.000000 85.552
988.000000 85.713
1000.000000 85.894
1015.000000 86.096
1030.000000 86.265
1044.000000 86.404
1060.000000 86.550
1075.000000 86.678
1090.000000 86.798
1106.000000 86.921
1120.000000 87.025
1138.000000 87.151
1150.000000 87.231
1172.000000 87.376
1180.000000 87.426
1206.000000 87.580
1220.000000 87.657
1241.000000 87.768
1250.000000 87.815
1265.000000 87.892
1280.000000 87.965
1315.000000 88.127
1320.000000 88.149
1340.000000 88.236
1360.000000 88.321
1380.000000 88.404
1400.000000 88.484
1430.000000 88.601
1450.000000 88.676
1475.000000 88.768
1500.000000 88.858
1525.000000 88.948
1550.000000 89.045
1575.000000 89.155
1600.000000 89.288
1625.000000 89.443
1650.000000 89.606
1675.000000 89.763
1700.000000 89.903
1725.000000 90.027
1750.000000 90.143
1775.000000 90.254
1800.000000 90.365
1825.000000 90.477
1850.000000 90.592
1875.000000 90.709
1900.000000 90.826
1925.000000 90.941
1950.000000 91.054
1975.000000 91.165
2000.000000 91.274
2030.000000 91.401
2060.000000 91.528
2090.000000 91.653
2120.000000 91.775
2140.000000 91.855
2180.000000 92.011
2200.000000 92.087
2240.000000 92.234
2270.000000 92.338
2300.000000 92.439
2330.000000 92.534
2360.000000 92.624
2400.000000 92.734
2430.000000 92.810
2470.000000 92.904
2500.000000 92.970
2540.000000 93.055
2580.000000 93.141
2620.000000 93.229
2650.000000 93.298
2690.000000 93.393
2720.000000 93.466
2760.000000 93.563
2800.000000 93.653
2850.000000 93.740
2900.000000 93.791
2950.000000 93.807
3000.000000 93.798
3040.000000 93.783
3070.000000 93.769
3110.000000 93.747
3150.000000 93.721
3200.000000 93.678
3250.000000 93.623
3300.000000 93.558
3350.000000 93.488
3400.000000 93.416
3450.000000 93.347
3500.000000 93.284
3550.000000 93.225
3600.000000 93.170
3650.000000 93.116
3700.000000 93.063
3750.000000 93.010
3820.000000 92.935
3870.000000 92.881
3950.000000 92.796
4000.000000 92.747
4060.000000 92.694
4120.000000 92.648
4180.000000 92.606
4250.000000 92.562
4310.000000 92.530
4370.000000 92.503
4440.000000 92.478
4500.000000 92.462
4550.000000 92.452
4620.000000 92.441
4680.000000 92.437
4750.000000 92.436
4820.000000 92.440
4870.000000 92.446
4940.000000 92.459
5000.000000 92.472
5080.000000 92.490
5150.000000 92.504
5220.000000 92.518
5300.000000 92.532
5380.000000 92.543
5450.000000 92.546
5520.000000 92.544
5600.000000 92.536
5700.000000 92.514
5800.000000 92.478
5900.000000 92.431
6000.000000 92.377
6080.000000 92.334
6150.000000 92.295
6220.000000 92.257
6300.000000 92.218
6400.000000 92.181
6500.000000 92.160
6600.000000 92.163
6700.000000 92.193
6800.000000 92.237
6900.000000 92.292
7000.000000 92.366
7100.000000 92.464
7200.000000 92.583
7300.000000 92.715
7400.000000 92.853
7500.000000 92.987
7620.000000 93.120
7750.000000 93.200
7880.000000 93.177
8000.000000 93.038
8120.000000 92.771
8250.000000 92.330
8380.000000 91.741
8500.000000 91.074
8620.000000 90.293
8750.000000 89.320
8850.000000 88.489
9000.000000 87.139
9120.000000 86.009
9250.000000 84.783
9380.000000 83.600
9500.000000 82.572
9620.000000 81.608
9750.000000 80.630
9880.000000 79.723
10000.000000 78.948
10150.000000 78.074
10300.000000 77.357
10440.000000 76.922
10600.000000 76.864
10750.000000 77.346
10900.000000 78.265
11060.000000 79.411
11200.000000 80.280
11380.000000 81.000
11500.000000 81.224
11720.000000 81.274
11800.000000 81.233
12060.000000 81.080
12200.000000 81.046
12410.000000 81.109
12500.000000 81.182
12650.000000 81.365
12800.000000 81.621
13150.000000 82.521
13200.000000 82.689
13400.000000 83.463
13600.000000 84.418
13800.000000 85.566
14000.000000 86.900
14300.000000 89.038
14500.000000 90.187
14750.000000 90.785
15000.000000 90.289
15250.000000 89.051
15500.000000 87.600
15750.000000 86.234
16000.000000 84.989
16250.000000 83.786
16500.000000 82.496
16750.000000 80.976
17000.000000 79.220
17250.000000 77.361
17500.000000 75.539
17750.000000 73.826
18000.000000 72.259
18250.000000 70.861
18500.000000 69.628
18750.000000 68.540
19000.000000 67.572
19250.000000 66.659
19500.000000 65.701
19750.000000 64.681
