* Measurement data measured by REW V5.20.9
* Source: USB-C to 3.5mm Headphone Jack Adapter, USB-C to 3.5mm Headphone Jack Adapter, 0, volume: 0.138
* Format: 256k Log Swept Sine, 1 sweep at -12.0 dBFS with no timing reference
* Dated: 11/08/2022 9:07:30 PM
* REW Settings:
*  C-weighting compensation: Off
*  Target level: 75.0 dB
* Note: ; 
* Measurement: E3000 Modded L
* Smoothing: 1/24 octave
* Frequency Step: 1/48 octave
* Start Frequency: 1.000 Hz
*
* Freq(Hz) SPL(dB) Phase(degrees)
1.000000 58.691 134.1853
1.015000 58.524 133.8140
1.030000 58.357 133.4703
1.044000 58.199 133.1660
1.060000 58.019 132.8403
1.075000 57.848 132.5588
1.090000 57.676 132.3028
1.106000 57.491 132.0607
1.120000 57.328 131.8773
1.138000 57.115 131.6839
1.150000 56.973 131.5832
1.172000 56.708 131.4622
1.180000 56.610 131.4398
1.206000 56.289 131.4525
1.220000 56.113 131.5166
1.241000 55.846 131.6935
1.250000 55.729 131.8003
1.265000 55.533 132.0217
1.280000 55.335 132.2994
1.315000 54.859 133.1797
1.320000 54.790 133.3333
1.340000 54.509 134.0211
1.360000 54.215 134.8434
1.380000 53.891 135.8319
1.400000 53.541 136.9734
1.430000 52.979 138.9375
1.450000 52.587 140.3917
1.475000 52.090 142.3445
1.500000 51.592 144.4184
1.525000 51.105 146.5825
1.550000 50.640 148.8057
1.575000 50.208 151.0571
1.600000 49.819 153.3056
1.625000 49.484 155.5203
1.650000 49.213 157.6703
1.675000 49.019 159.7244
1.700000 48.908 161.7294
1.725000 48.876 163.8692
1.750000 48.912 166.1185
1.775000 49.008 168.4391
1.800000 49.152 170.7927
1.825000 49.335 173.1411
1.850000 49.547 175.4457
1.875000 49.778 177.6684
1.900000 50.019 179.7709
1.925000 50.259 -178.2852
1.950000 50.489 -176.5381
1.975000 50.698 -175.0262
2.000000 50.877 -173.7879
2.030000 51.044 -172.7045
2.060000 51.204 -171.9679
2.090000 51.369 -171.5273
2.120000 51.534 -171.3602
2.140000 51.642 -171.3896
2.180000 51.850 -171.7565
2.200000 51.948 -172.0807
2.240000 52.124 -172.9771
2.270000 52.236 -173.8403
2.300000 52.326 -174.8421
2.330000 52.391 -175.9600
2.360000 52.427 -177.1722
2.400000 52.429 -178.9711
2.430000 52.401 179.5163
2.470000 52.329 177.2665
2.500000 52.254 175.3941
2.540000 52.131 172.6357
2.580000 51.988 169.5607
2.620000 51.833 166.1502
2.650000 51.713 163.3609
2.690000 51.553 159.3180
2.720000 51.416 156.0083
2.760000 51.177 151.1961
2.800000 50.898 145.9828
2.850000 50.531 138.9938
2.900000 50.190 131.5896
2.950000 49.926 123.8880
3.000000 49.788 116.0066
3.040000 49.801 109.6230
3.070000 49.872 104.5615
3.110000 50.033 97.4183
3.150000 50.261 89.9800
3.200000 50.624 80.5265
3.250000 51.057 71.2099
3.300000 51.540 62.3623
3.350000 52.056 54.3158
3.400000 52.614 47.2119
3.450000 53.269 40.6695
3.500000 53.993 34.6293
3.550000 54.750 29.0591
3.600000 55.508 23.9268
3.650000 56.230 19.2001
3.700000 56.884 14.8470
3.750000 57.474 10.9954
3.820000 58.251 6.5458
3.870000 58.773 3.8624
3.950000 59.560 0.0629
4.000000 60.025 -2.2078
4.060000 60.558 -5.0108
4.120000 61.057 -7.6843
4.180000 61.522 -10.1725
4.250000 62.029 -12.8807
4.310000 62.441 -15.0689
4.370000 62.838 -17.1655
4.440000 63.278 -19.4673
4.500000 63.631 -21.2885
4.550000 63.910 -22.7220
4.620000 64.282 -24.6359
4.680000 64.589 -26.2229
4.750000 64.934 -28.0358
4.820000 65.261 -29.7562
4.870000 65.483 -30.9344
4.940000 65.781 -32.5300
5.000000 66.026 -33.8623
5.080000 66.339 -35.6086
5.150000 66.598 -37.0924
5.220000 66.844 -38.5310
5.300000 67.109 -40.1228
5.380000 67.358 -41.6622
5.450000 67.564 -42.9672
5.520000 67.757 -44.2316
5.600000 67.963 -45.6259
5.700000 68.200 -47.2910
5.800000 68.414 -48.8794
5.900000 68.604 -50.3930
6.000000 68.776 -51.7932
6.080000 68.902 -52.8070
6.150000 69.001 -53.6251
6.220000 69.091 -54.3805
6.300000 69.187 -55.1602
6.400000 69.303 -55.9978
6.500000 69.412 -56.6721
6.600000 69.515 -57.1971
6.700000 69.622 -57.5951
6.800000 69.742 -57.8640
6.900000 69.867 -57.9831
7.000000 70.003 -58.0238
7.100000 70.158 -58.0513
7.200000 70.332 -58.0139
7.300000 70.521 -57.9575
7.400000 70.722 -57.9675
7.500000 70.938 -58.0540
7.620000 71.213 -58.2299
7.750000 71.513 -58.5870
7.880000 71.814 -59.1509
8.000000 72.089 -59.8209
8.120000 72.343 -60.6132
8.250000 72.602 -61.6395
8.380000 72.836 -62.7546
8.500000 73.023 -63.8118
8.620000 73.186 -64.9217
8.750000 73.336 -66.0670
8.850000 73.431 -66.8914
9.000000 73.544 -68.0416
9.120000 73.622 -68.7952
9.250000 73.687 -69.4451
9.380000 73.747 -69.9217
9.500000 73.812 -70.1814
9.620000 73.878 -70.2685
9.750000 73.969 -70.2478
9.880000 74.088 -70.1086
10.000000 74.220 -69.8960
10.150000 74.421 -69.6946
10.300000 74.665 -69.5314
10.440000 74.914 -69.5394
10.600000 75.225 -69.7984
10.750000 75.525 -70.2772
10.900000 75.819 -71.0338
11.060000 76.123 -72.1008
11.200000 76.363 -73.2090
11.380000 76.641 -74.8652
11.500000 76.799 -76.0213
11.720000 77.037 -78.2634
11.800000 77.107 -79.0596
12.060000 77.277 -81.5819
12.200000 77.340 -82.8172
12.410000 77.402 -84.4987
12.500000 77.422 -85.1433
12.650000 77.446 -86.1161
12.800000 77.463 -86.9787
13.150000 77.489 -88.5876
13.200000 77.491 -88.7786
13.400000 77.495 -89.4391
13.600000 77.490 -89.9214
13.800000 77.479 -90.1914
14.000000 77.464 -90.1906
14.300000 77.469 -89.5961
14.500000 77.516 -88.8378
14.750000 77.656 -87.5588
15.000000 77.912 -86.2797
15.250000 78.266 -85.3341
15.500000 78.687 -84.9807
15.750000 79.118 -85.4136
16.000000 79.499 -86.5481
16.250000 79.798 -88.1711
16.500000 79.996 -90.0378
16.750000 80.087 -91.8188
17.000000 80.096 -93.2060
17.250000 80.056 -94.0588
17.500000 80.006 -94.3092
17.750000 79.994 -94.0336
18.000000 80.050 -93.5137
18.250000 80.174 -92.9921
18.500000 80.354 -92.6928
18.750000 80.551 -92.7809
19.000000 80.732 -93.2059
19.250000 80.879 -93.8524
19.500000 80.981 -94.5695
19.750000 81.047 -95.1544
20.000000 81.103 -95.5223
20.299999 81.186 -95.6915
20.600000 81.320 -95.7290
20.900000 81.516 -95.9286
21.200001 81.746 -96.5685
21.400000 81.893 -97.3143
21.799999 82.113 -99.4030
22.000000 82.165 -100.5830
22.400000 82.152 -102.7483
22.700001 82.071 -103.7983
23.000000 81.985 -104.2077
23.299999 81.950 -104.0800
23.600000 82.003 -103.7159
24.000000 82.198 -103.5019
24.299999 82.381 -103.8160
24.700001 82.590 -104.8101
25.000000 82.692 -105.6874
25.400000 82.770 -106.6043
25.799999 82.848 -107.0541
26.200001 82.981 -107.2901
26.500000 83.116 -107.5901
26.900000 83.298 -108.3442
27.200001 83.406 -109.1312
27.600000 83.489 -110.1913
28.000000 83.522 -110.9633
28.500000 83.567 -111.3659
29.000000 83.684 -111.5092
29.500000 83.861 -111.9000
30.000000 84.037 -112.7295
30.400000 84.143 -113.5883
30.700001 84.198 -114.2335
31.100000 84.246 -114.9737
31.500000 84.282 -115.4956
32.000000 84.346 -115.8573
32.500000 84.455 -116.0778
33.000000 84.600 -116.4060
33.500000 84.752 -116.9435
34.000000 84.887 -117.6140
34.500000 84.997 -118.3027
35.000000 85.087 -118.9439
35.500000 85.162 -119.4926
36.000000 85.232 -119.9169
36.500000 85.316 -120.2843
37.000000 85.411 -120.7715
37.500000 85.486 -121.4628
38.200001 85.514 -122.3582
38.700001 85.520 -122.5667
39.500000 85.660 -122.5006
40.000000 85.824 -122.8600
40.599998 85.997 -123.8927
41.200001 86.099 -125.0871
41.799999 86.163 -126.0275
42.500000 86.251 -126.8718
43.099998 86.332 -127.5806
43.700001 86.400 -128.2643
44.400002 86.466 -128.9171
45.000000 86.525 -129.3726
45.500000 86.578 -129.7526
46.200001 86.647 -130.3437
46.799999 86.699 -130.8701
47.500000 86.769 -131.5514
48.200001 86.832 -132.5210
48.700001 86.839 -133.3256
49.400002 86.797 -134.0803
50.000000 86.796 -134.1868
50.799999 86.930 -134.3118
51.500000 87.084 -135.0289
52.200001 87.182 -135.9505
53.000000 87.258 -136.6962
53.799999 87.347 -137.1995
54.500000 87.437 -137.5791
55.200001 87.540 -138.0445
56.000000 87.635 -138.8393
57.000000 87.677 -139.8403
58.000000 87.706 -140.5205
59.000000 87.762 -141.1698
60.000000 87.840 -141.9211
60.799999 87.901 -142.6284
61.500000 87.943 -143.2284
62.200001 87.985 -143.7536
63.000000 88.037 -144.3398
64.000000 88.085 -145.0730
65.000000 88.118 -145.6454
66.000000 88.170 -146.1548
67.000000 88.230 -146.8124
68.000000 88.275 -147.5661
69.000000 88.313 -148.2835
70.000000 88.353 -148.9668
71.000000 88.395 -149.6178
72.000000 88.437 -150.2635
73.000000 88.470 -150.8985
74.000000 88.499 -151.4986
75.000000 88.530 -152.1113
76.199997 88.566 -152.9142
77.500000 88.599 -153.7520
78.800003 88.648 -154.5641
80.000000 88.686 -155.3234
81.199997 88.718 -156.0331
82.500000 88.727 -156.7491
83.800003 88.733 -157.3035
85.000000 88.743 -157.8159
86.199997 88.773 -158.3250
87.500000 88.813 -159.1043
88.500000 88.827 -159.6825
90.000000 88.858 -160.4766
91.199997 88.870 -161.1120
92.500000 88.888 -161.7185
93.800003 88.903 -162.4234
95.000000 88.909 -163.0037
96.199997 88.935 -163.5559
97.500000 88.961 -164.2105
98.800003 88.993 -164.7370
100.000000 89.028 -165.3871
101.500000 88.997 -166.2265
103.000000 88.953 -166.6678
104.400002 88.949 -167.1647
106.000000 88.935 -167.9524
107.500000 88.924 -168.5365
109.000000 88.946 -169.1344
110.599998 88.947 -169.8879
112.000000 88.924 -170.3655
113.800003 88.920 -170.9118
115.000000 88.918 -171.4419
117.199997 88.875 -172.3726
118.000000 88.863 -172.6122
120.599998 88.874 -173.4704
122.000000 88.868 -174.0830
124.099998 88.821 -174.8973
125.000000 88.801 -175.1618
126.500000 88.785 -175.5637
128.000000 88.785 -176.0360
131.500000 88.743 -177.3466
132.000000 88.731 -177.5161
134.000000 88.679 -178.1339
136.000000 88.634 -178.7014
138.000000 88.601 -179.2439
140.000000 88.575 -179.7830
143.000000 88.523 179.3506
145.000000 88.478 178.6775
147.500000 88.411 177.7477
150.000000 88.322 176.9221
152.500000 88.219 176.3771
155.000000 88.127 175.9002
157.500000 88.045 175.5023
160.000000 87.957 175.3581
162.500000 87.848 175.5870
165.000000 87.722 176.2688
167.500000 87.576 177.3712
170.000000 87.400 178.5059
172.500000 87.279 179.1385
175.000000 87.372 179.3285
177.500000 87.681 179.7053
180.000000 88.010 -179.7485
182.500000 88.209 -179.8929
185.000000 88.317 178.8568
187.500000 88.415 177.1664
190.000000 88.483 175.7932
192.500000 88.477 174.7226
195.000000 88.426 173.6342
197.500000 88.378 172.5621
200.000000 88.332 171.7095
203.000000 88.263 170.9233
206.000000 88.192 170.1603
209.000000 88.126 169.4698
212.000000 88.054 168.8687
214.000000 88.004 168.4828
218.000000 87.908 167.7564
220.000000 87.861 167.4210
224.000000 87.770 166.7859
227.000000 87.704 166.3417
230.000000 87.637 165.9279
233.000000 87.571 165.5414
236.000000 87.505 165.1773
240.000000 87.419 164.7166
243.000000 87.359 164.3909
247.000000 87.280 164.0059
250.000000 87.218 163.7201
254.000000 87.131 163.3007
258.000000 87.045 162.9128
262.000000 86.963 162.5583
265.000000 86.901 162.3146
269.000000 86.821 162.0134
272.000000 86.762 161.7911
276.000000 86.682 161.4999
280.000000 86.604 161.2299
285.000000 86.506 160.9224
290.000000 86.409 160.6320
295.000000 86.312 160.3258
300.000000 86.214 160.0183
304.000000 86.140 159.8820
307.000000 86.086 159.7937
311.000000 86.014 159.6500
315.000000 85.942 159.5076
320.000000 85.849 159.3452
325.000000 85.757 159.1949
330.000000 85.667 159.0684
335.000000 85.580 158.9704
340.000000 85.494 158.8948
345.000000 85.406 158.8469
350.000000 85.320 158.8037
355.000000 85.249 158.7128
360.000000 85.178 158.6322
365.000000 85.103 158.5655
370.000000 85.028 158.4987
375.000000 84.951 158.4403
382.000000 84.840 158.3734
387.000000 84.761 158.3369
395.000000 84.639 158.2958
400.000000 84.563 158.2915
406.000000 84.473 158.3229
412.000000 84.383 158.3644
418.000000 84.294 158.4111
425.000000 84.191 158.4778
431.000000 84.103 158.5515
437.000000 84.018 158.6290
444.000000 83.921 158.6910
450.000000 83.839 158.7545
455.000000 83.772 158.8845
462.000000 83.679 159.0907
468.000000 83.600 159.2458
475.000000 83.508 159.4204
482.000000 83.417 159.6012
487.000000 83.353 159.7422
494.000000 83.269 159.9643
500.000000 83.198 160.1605
508.000000 83.099 160.3856
515.000000 83.014 160.6048
522.000000 82.933 160.8496
530.000000 82.842 161.1425
538.000000 82.752 161.4564
545.000000 82.674 161.7335
552.000000 82.599 162.0197
560.000000 82.516 162.3612
570.000000 82.415 162.7941
580.000000 82.316 163.2603
590.000000 82.220 163.7237
600.000000 82.128 164.1928
608.000000 82.052 164.6000
615.000000 81.988 164.9639
622.000000 81.927 165.3331
630.000000 81.861 165.7599
640.000000 81.785 166.2877
650.000000 81.713 166.8229
660.000000 81.631 167.4052
670.000000 81.555 167.9949
680.000000 81.486 168.5764
690.000000 81.419 169.1596
700.000000 81.354 169.7481
710.000000 81.299 170.3582
720.000000 81.248 170.9683
730.000000 81.198 171.5618
740.000000 81.149 172.1582
750.000000 81.103 172.7610
762.000000 81.052 173.4373
775.000000 81.002 174.1222
788.000000 80.946 174.7519
800.000000 80.877 175.2881
812.000000 80.780 175.8691
825.000000 80.645 176.8377
838.000000 80.536 178.3424
850.000000 80.512 179.8982
862.000000 80.549 -178.8078
875.000000 80.610 -177.7077
885.000000 80.654 -176.9880
900.000000 80.709 -176.0320
912.000000 80.749 -175.3370
925.000000 80.792 -174.6200
938.000000 80.835 -173.9316
950.000000 80.875 -173.3102
962.000000 80.916 -172.7091
975.000000 80.963 -172.1019
988.000000 81.014 -171.5430
1000.000000 81.061 -171.0546
1015.000000 81.119 -170.4552
1030.000000 81.177 -169.9037
1044.000000 81.232 -169.4496
1060.000000 81.298 -168.9984
1075.000000 81.362 -168.6194
1090.000000 81.420 -168.2760
1106.000000 81.483 -167.9733
1120.000000 81.540 -167.7694
1138.000000 81.610 -167.5804
1150.000000 81.652 -167.5094
1172.000000 81.720 -167.5060
1180.000000 81.743 -167.5461
1206.000000 81.805 -167.8795
1220.000000 81.822 -168.2383
1241.000000 81.799 -169.0718
1250.000000 81.762 -169.5308
1265.000000 81.645 -170.3526
1280.000000 81.440 -171.0564
1315.000000 80.654 -170.1910
1320.000000 80.535 -169.6243
1340.000000 80.168 -166.3650
1360.000000 80.067 -162.3737
1380.000000 80.211 -158.8718
1400.000000 80.471 -156.3808
1430.000000 80.874 -154.2441
1450.000000 81.099 -153.4353
1475.000000 81.325 -152.7166
1500.000000 81.506 -152.1459
1525.000000 81.660 -151.6414
1550.000000 81.795 -151.1315
1575.000000 81.913 -150.6343
1600.000000 82.023 -150.1349
1625.000000 82.131 -149.6302
1650.000000 82.236 -149.1172
1675.000000 82.336 -148.5837
1700.000000 82.436 -148.0532
1725.000000 82.536 -147.5329
1750.000000 82.637 -147.0161
1775.000000 82.740 -146.5163
1800.000000 82.844 -146.0278
1825.000000 82.952 -145.5419
1850.000000 83.059 -145.0644
1875.000000 83.169 -144.6032
1900.000000 83.282 -144.1661
1925.000000 83.396 -143.7590
1950.000000 83.511 -143.3774
1975.000000 83.625 -143.0143
2000.000000 83.740 -142.6665
2030.000000 83.880 -142.2702
2060.000000 84.019 -141.9123
2090.000000 84.157 -141.5896
2120.000000 84.297 -141.2838
2140.000000 84.391 -141.0899
2180.000000 84.583 -140.7426
2200.000000 84.681 -140.5938
2240.000000 84.876 -140.3505
2270.000000 85.017 -140.2213
2300.000000 85.147 -140.1171
2330.000000 85.261 -139.9649
2360.000000 85.365 -139.6721
2400.000000 85.515 -138.8987
2430.000000 85.675 -138.0087
2470.000000 86.016 -136.6993
2500.000000 86.376 -136.0128
2540.000000 86.933 -136.0406
2580.000000 87.472 -137.2610
2620.000000 87.926 -139.3269
2650.000000 88.202 -141.1990
2690.000000 88.489 -143.9285
2720.000000 88.647 -146.0592
2760.000000 88.793 -148.9093
2800.000000 88.875 -151.6990
2850.000000 88.905 -155.0564
2900.000000 88.863 -158.3071
2950.000000 88.747 -161.4143
3000.000000 88.558 -164.2429
3040.000000 88.363 -166.2257
3070.000000 88.199 -167.5394
3110.000000 87.963 -169.0671
3150.000000 87.714 -170.3403
3200.000000 87.391 -171.5786
3250.000000 87.066 -172.4435
3300.000000 86.751 -172.9802
3350.000000 86.452 -173.2502
3400.000000 86.175 -173.3187
3450.000000 85.919 -173.2552
3500.000000 85.679 -173.1233
3550.000000 85.448 -172.9201
3600.000000 85.221 -172.6259
3650.000000 85.001 -172.2172
3700.000000 84.789 -171.6834
3750.000000 84.593 -171.0488
3820.000000 84.349 -170.0786
3870.000000 84.191 -169.3580
3950.000000 83.956 -168.1247
4000.000000 83.824 -167.3208
4060.000000 83.680 -166.3477
4120.000000 83.546 -165.3850
4180.000000 83.417 -164.4115
4250.000000 83.273 -163.2244
4310.000000 83.160 -162.1543
4370.000000 83.059 -161.0269
4440.000000 82.962 -159.6603
4500.000000 82.899 -158.4866
4550.000000 82.857 -157.5228
4620.000000 82.815 -156.2122
4680.000000 82.795 -155.1394
4750.000000 82.786 -153.9660
4820.000000 82.791 -152.8877
4870.000000 82.799 -152.1812
4940.000000 82.816 -151.2852
5000.000000 82.833 -150.6016
5080.000000 82.858 -149.8145
5150.000000 82.876 -149.2452
5220.000000 82.887 -148.7695
5300.000000 82.888 -148.2918
5380.000000 82.878 -147.8542
5450.000000 82.865 -147.5054
5520.000000 82.849 -147.1941
5600.000000 82.827 -146.9030
5700.000000 82.784 -146.6565
5800.000000 82.717 -146.5366
5900.000000 82.613 -146.5409
6000.000000 82.450 -146.5946
6080.000000 82.268 -146.5850
6150.000000 82.063 -146.4690
6220.000000 81.808 -146.1412
6300.000000 81.446 -145.2837
6400.000000 80.895 -142.9806
6500.000000 80.298 -138.4487
6600.000000 79.872 -130.7764
6700.000000 80.092 -120.1937
6800.000000 81.393 -109.4532
6900.000000 83.519 -102.7986
7000.000000 85.770 -102.8382
7100.000000 87.626 -109.3211
7200.000000 88.841 -120.0281
7300.000000 89.395 -132.0894
7400.000000 89.418 -143.2871
7500.000000 89.096 -152.6672
7620.000000 88.477 -161.5186
7750.000000 87.700 -168.7720
7880.000000 86.910 -174.2911
8000.000000 86.210 -178.2181
8120.000000 85.573 178.7427
8250.000000 85.007 176.0384
8380.000000 84.585 173.2243
8500.000000 84.258 169.9294
8620.000000 83.880 165.9267
8750.000000 83.338 161.3737
8850.000000 82.830 158.1198
9000.000000 81.973 153.9133
9120.000000 81.239 151.1028
9250.000000 80.393 148.5421
9380.000000 79.451 146.6068
9500.000000 78.418 146.3839
9620.000000 77.367 150.6112
9750.000000 77.445 159.9795
9880.000000 78.579 161.0555
10000.000000 78.738 153.8731
10150.000000 77.940 147.4395
10300.000000 77.039 145.3420
10440.000000 76.357 144.8622
10600.000000 75.715 144.9388
10750.000000 75.204 145.3064
10900.000000 74.759 145.8442
11060.000000 74.349 146.5433
11200.000000 74.041 147.2084
11380.000000 73.705 148.0412
11500.000000 73.515 148.5544
11720.000000 73.227 149.3698
11800.000000 73.141 149.6045
12060.000000 72.926 150.0829
12200.000000 72.851 150.1510
12410.000000 72.788 149.9057
12500.000000 72.779 149.6583
12650.000000 72.786 149.0204
12800.000000 72.821 148.0526
13150.000000 73.022 144.3047
13200.000000 73.064 143.5699
13400.000000 73.263 140.0377
13600.000000 73.503 135.4075
13800.000000 73.774 129.4642
14000.000000 74.040 121.9609
14300.000000 74.368 107.7835
14500.000000 74.523 96.4198
14750.000000 74.685 80.2135
15000.000000 74.920 61.3522
15250.000000 75.294 38.6736
15500.000000 75.724 10.5880
15750.000000 75.902 -23.7708
16000.000000 75.446 -62.5864
16250.000000 74.221 -101.3233
16500.000000 72.492 -136.2911
16750.000000 70.694 -167.0212
17000.000000 69.108 165.1778
17250.000000 67.823 138.9205
17500.000000 66.803 113.0012
17750.000000 66.000 86.4639
18000.000000 65.376 58.3923
18250.000000 64.887 27.9016
18500.000000 64.515 -5.9530
18750.000000 64.228 -44.3622
19000.000000 63.958 -88.8140
19250.000000 63.622 -140.8855
19500.000000 63.105 158.7449
19750.000000 62.377 96.4780
