* Measurement data measured by REW V5.20.9
* Source: Headset (USB-C to 3.5mm Headphone Jack Adapter), MICROPHONE (Master Volume), R, volume: 0.800. Timing signal peak level -26.4 dBFS, measurement signal peak level -24.2 dBFS
* Format: 256k Log Swept Sine, 1 sweep at -12.0 dBFS using an acoustic timing reference
* Dated: 13/07/2022 8:14:48 PM
* REW Settings:
*  C-weighting compensation: Off
*  Target level: 75.0 dB
* Note: ; Delay -0.0804 ms (-28 mm, -1.09 in) using estimated IR delay relative to Acoustic reference on  L with no timing offset
* Measurement: E3000 L
* Smoothing: 1/24 octave
* Frequency Step: 1/48 octave
* Start Frequency: 1.000 Hz
*
* Freq(Hz) SPL(dB) Phase(degrees)
1.000000 50.562 -124.8629
1.015000 50.512 -126.6195
1.030000 50.453 -128.4155
1.044000 50.390 -130.1298
1.060000 50.309 -132.1368
1.075000 50.222 -134.0674
1.090000 50.124 -136.0483
1.106000 50.006 -138.2141
1.120000 49.878 -140.1244
1.138000 49.682 -142.5961
1.150000 49.532 -144.2560
1.172000 49.225 -147.3304
1.180000 49.104 -148.4599
1.206000 48.685 -152.1808
1.220000 48.446 -154.2201
1.241000 48.076 -157.3327
1.250000 47.915 -158.6881
1.265000 47.647 -160.9784
1.280000 47.379 -163.3103
1.315000 46.775 -168.9302
1.320000 46.693 -169.7551
1.340000 46.378 -173.1147
1.360000 46.090 -176.5755
1.380000 45.836 179.8553
1.400000 45.622 176.1703
1.430000 45.393 170.4102
1.450000 45.311 166.4042
1.475000 45.297 161.1722
1.500000 45.362 155.4830
1.525000 45.496 149.3567
1.550000 45.691 142.8732
1.575000 45.940 136.1121
1.600000 46.237 129.1534
1.625000 46.575 122.0769
1.650000 46.946 114.9622
1.675000 47.343 107.8893
1.700000 47.761 100.9380
1.725000 48.191 94.1880
1.750000 48.627 87.7191
1.775000 49.061 81.6112
1.800000 49.488 75.9440
1.825000 49.899 70.7973
1.850000 50.305 66.1616
1.875000 50.739 61.8514
1.900000 51.198 57.8375
1.925000 51.676 54.0987
1.950000 52.171 50.6137
1.975000 52.676 47.3614
2.000000 53.187 44.3206
2.030000 53.802 40.9208
2.060000 54.411 37.7585
2.090000 55.006 34.7968
2.120000 55.579 31.9993
2.140000 55.944 30.2074
2.180000 56.625 26.7500
2.200000 56.936 25.0642
2.240000 57.516 22.0476
2.270000 57.923 20.1399
2.300000 58.309 18.4871
2.330000 58.676 17.0448
2.360000 59.024 15.7691
2.400000 59.466 14.2506
2.430000 59.781 13.1913
2.470000 60.185 11.8009
2.500000 60.478 10.7172
2.540000 60.859 9.1338
2.580000 61.231 7.3180
2.620000 61.582 5.4009
2.650000 61.831 3.9363
2.690000 62.144 1.9689
2.720000 62.367 0.4964
2.760000 62.651 -1.4421
2.800000 62.921 -3.3284
2.850000 63.243 -5.5736
2.900000 63.552 -7.6465
2.950000 63.852 -9.5004
3.000000 64.131 -11.1495
3.040000 64.340 -12.3474
3.070000 64.490 -13.1870
3.110000 64.680 -14.2424
3.150000 64.862 -15.2411
3.200000 65.080 -16.4375
3.250000 65.292 -17.6088
3.300000 65.498 -18.7902
3.350000 65.696 -19.9671
3.400000 65.882 -21.1088
3.450000 66.057 -22.2091
3.500000 66.225 -23.2621
3.550000 66.389 -24.2618
3.600000 66.550 -25.2021
3.650000 66.711 -26.0771
3.700000 66.872 -26.8763
3.750000 67.028 -27.5934
3.820000 67.240 -28.4863
3.870000 67.389 -29.0645
3.950000 67.627 -29.9268
4.000000 67.778 -30.4492
4.060000 67.963 -31.0710
4.120000 68.149 -31.6404
4.180000 68.337 -32.1674
4.250000 68.556 -32.7549
4.310000 68.744 -33.2582
4.370000 68.933 -33.7823
4.440000 69.155 -34.4318
4.500000 69.347 -34.9956
4.550000 69.508 -35.4710
4.620000 69.733 -36.1488
4.680000 69.923 -36.7449
4.750000 70.139 -37.4627
4.820000 70.351 -38.2066
4.870000 70.501 -38.7515
4.940000 70.707 -39.5321
5.000000 70.880 -40.2169
5.080000 71.102 -41.1510
5.150000 71.286 -41.9885
5.220000 71.462 -42.8628
5.300000 71.654 -43.8931
5.380000 71.836 -44.9293
5.450000 71.987 -45.8181
5.520000 72.130 -46.6738
5.600000 72.281 -47.6384
5.700000 72.455 -48.8184
5.800000 72.617 -49.9435
5.900000 72.769 -50.9899
6.000000 72.906 -51.9739
6.080000 73.009 -52.7126
6.150000 73.096 -53.3173
6.220000 73.183 -53.8774
6.300000 73.282 -54.4561
6.400000 73.401 -55.0950
6.500000 73.520 -55.6631
6.600000 73.646 -56.1846
6.700000 73.777 -56.6426
6.800000 73.913 -57.0414
6.900000 74.054 -57.4198
7.000000 74.203 -57.8090
7.100000 74.360 -58.1821
7.200000 74.523 -58.5543
7.300000 74.688 -58.9543
7.400000 74.855 -59.3978
7.500000 75.027 -59.8692
7.620000 75.233 -60.4751
7.750000 75.450 -61.1896
7.880000 75.662 -61.9719
8.000000 75.852 -62.7262
8.120000 76.031 -63.4901
8.250000 76.215 -64.3472
8.380000 76.389 -65.1982
8.500000 76.540 -65.9517
8.620000 76.682 -66.6896
8.750000 76.828 -67.4486
8.850000 76.937 -67.9894
9.000000 77.094 -68.7412
9.120000 77.216 -69.2927
9.250000 77.349 -69.8359
9.380000 77.482 -70.3232
9.500000 77.605 -70.7416
9.620000 77.732 -71.1348
9.750000 77.871 -71.5273
9.880000 78.013 -71.9098
10.000000 78.147 -72.2612
10.150000 78.316 -72.6924
10.300000 78.486 -73.1341
10.440000 78.644 -73.5576
10.600000 78.823 -74.0494
10.750000 78.987 -74.5190
10.900000 79.148 -74.9942
11.060000 79.315 -75.4934
11.200000 79.458 -75.9254
11.380000 79.638 -76.4683
11.500000 79.756 -76.8182
11.720000 79.970 -77.4496
11.800000 80.047 -77.6779
12.060000 80.296 -78.4224
12.200000 80.428 -78.8450
12.410000 80.623 -79.5084
12.500000 80.704 -79.8111
12.650000 80.835 -80.3405
12.800000 80.958 -80.8912
13.150000 81.209 -82.2449
13.200000 81.241 -82.4343
13.400000 81.352 -83.1900
13.600000 81.447 -83.8765
13.800000 81.525 -84.4717
14.000000 81.597 -84.9448
14.300000 81.701 -85.4236
14.500000 81.781 -85.6044
14.750000 81.899 -85.7654
15.000000 82.041 -85.9070
15.250000 82.203 -86.1396
15.500000 82.373 -86.4996
15.750000 82.543 -86.9973
16.000000 82.703 -87.6093
16.250000 82.851 -88.2731
16.500000 82.988 -88.9585
16.750000 83.118 -89.6278
17.000000 83.249 -90.2950
17.250000 83.381 -90.9812
17.500000 83.515 -91.7195
17.750000 83.642 -92.5344
18.000000 83.758 -93.4072
18.250000 83.856 -94.3163
18.500000 83.934 -95.1777
18.750000 83.996 -95.9388
19.000000 84.047 -96.5509
19.250000 84.104 -96.9902
19.500000 84.175 -97.3022
19.750000 84.267 -97.5270
20.000000 84.381 -97.7650
20.299999 84.538 -98.1514
20.600000 84.700 -98.6960
20.900000 84.851 -99.3877
21.200001 84.975 -100.1452
21.400000 85.044 -100.6215
21.799999 85.156 -101.4177
22.000000 85.207 -101.7113
22.400000 85.320 -102.1071
22.700001 85.423 -102.3211
23.000000 85.542 -102.5659
23.299999 85.668 -102.9052
23.600000 85.789 -103.3529
24.000000 85.928 -104.0753
24.299999 86.010 -104.6313
24.700001 86.093 -105.2780
25.000000 86.146 -105.6421
25.400000 86.224 -105.9708
25.799999 86.325 -106.2138
26.200001 86.449 -106.5046
26.500000 86.550 -106.8116
26.900000 86.683 -107.3525
27.200001 86.775 -107.8275
27.600000 86.884 -108.4912
28.000000 86.982 -109.1283
28.500000 87.097 -109.8508
29.000000 87.212 -110.5009
29.500000 87.330 -111.0862
30.000000 87.455 -111.6171
30.400000 87.564 -112.0437
30.700001 87.649 -112.3981
31.100000 87.756 -112.9394
31.500000 87.846 -113.5247
32.000000 87.927 -114.1641
32.500000 87.996 -114.5226
33.000000 88.098 -114.6350
33.500000 88.257 -114.8055
34.000000 88.441 -115.3757
34.500000 88.591 -116.3851
35.000000 88.669 -117.5396
35.500000 88.690 -118.4510
36.000000 88.709 -118.9830
36.500000 88.765 -119.3171
37.000000 88.858 -119.7458
37.500000 88.957 -120.3766
38.200001 89.064 -121.3530
38.700001 89.133 -121.9305
39.500000 89.273 -122.7742
40.000000 89.364 -123.3821
40.599998 89.454 -124.0929
41.200001 89.537 -124.6001
41.799999 89.644 -124.9829
42.500000 89.789 -125.5748
43.099998 89.888 -126.2043
43.700001 89.961 -126.7192
44.400002 90.056 -127.1566
45.000000 90.150 -127.6383
45.500000 90.213 -128.1855
46.200001 90.258 -128.9583
46.799999 90.283 -129.4786
47.500000 90.319 -130.1315
48.200001 90.317 -130.9276
48.700001 90.276 -131.2855
49.400002 90.249 -131.1129
50.000000 90.351 -130.7557
50.799999 90.611 -131.2659
51.500000 90.765 -132.7250
52.200001 90.793 -134.0995
53.000000 90.802 -134.8812
53.799999 90.891 -135.3618
54.500000 90.996 -136.0037
55.200001 91.074 -136.7683
56.000000 91.131 -137.4685
57.000000 91.214 -138.1000
58.000000 91.288 -138.8268
59.000000 91.334 -139.3958
60.000000 91.402 -140.0168
60.799999 91.429 -140.7169
61.500000 91.429 -141.2164
62.200001 91.442 -141.5810
63.000000 91.486 -142.0596
64.000000 91.550 -142.8293
65.000000 91.613 -143.6547
66.000000 91.675 -144.3721
67.000000 91.764 -145.0249
68.000000 91.836 -145.8204
69.000000 91.867 -146.3854
70.000000 91.902 -146.7493
71.000000 91.927 -147.0074
72.000000 91.996 -147.1331
73.000000 92.103 -147.8347
74.000000 92.133 -148.9838
75.000000 92.115 -149.8947
76.199997 92.114 -150.7260
77.500000 92.144 -151.4815
78.800003 92.195 -152.1943
80.000000 92.239 -152.7907
81.199997 92.281 -153.4172
82.500000 92.304 -154.1605
83.800003 92.321 -154.8704
85.000000 92.346 -155.5812
86.199997 92.369 -156.3180
87.500000 92.396 -157.0072
88.500000 92.420 -157.4892
90.000000 92.443 -158.1908
91.199997 92.448 -158.7001
92.500000 92.454 -159.2390
93.800003 92.464 -159.8738
95.000000 92.470 -160.5138
96.199997 92.475 -161.1407
97.500000 92.478 -161.7360
98.800003 92.482 -162.2432
100.000000 92.490 -162.6230
101.500000 92.515 -163.1946
103.000000 92.521 -163.8903
104.400002 92.519 -164.4775
106.000000 92.530 -165.1215
107.500000 92.537 -165.7732
109.000000 92.529 -166.3686
110.599998 92.522 -166.9441
112.000000 92.520 -167.4616
113.800003 92.519 -168.1476
115.000000 92.515 -168.5981
117.199997 92.508 -169.3259
118.000000 92.506 -169.5835
120.599998 92.486 -170.4485
122.000000 92.471 -170.8903
124.099998 92.453 -171.5414
125.000000 92.448 -171.8431
126.500000 92.438 -172.3768
128.000000 92.424 -172.8899
131.500000 92.398 -173.9343
132.000000 92.392 -174.0730
134.000000 92.352 -174.5701
136.000000 92.310 -175.0559
138.000000 92.273 -175.6648
140.000000 92.247 -176.2809
143.000000 92.225 -177.0193
145.000000 92.196 -177.5146
147.500000 92.117 -178.2886
150.000000 92.033 -178.9592
152.500000 92.010 -179.4347
155.000000 91.993 -179.9366
157.500000 91.945 179.5775
160.000000 91.885 179.0688
162.500000 91.827 178.5878
165.000000 91.772 178.1614
167.500000 91.721 177.7039
170.000000 91.668 177.2090
172.500000 91.611 176.7523
175.000000 91.549 176.3246
177.500000 91.482 175.8998
180.000000 91.414 175.4907
182.500000 91.341 175.1132
185.000000 91.262 174.7706
187.500000 91.177 174.4348
190.000000 91.083 174.1181
192.500000 90.984 173.8906
195.000000 90.878 173.7993
197.500000 90.758 173.8463
200.000000 90.628 173.9920
203.000000 90.472 174.3314
206.000000 90.343 175.0966
209.000000 90.281 176.3364
212.000000 90.322 177.6677
214.000000 90.414 178.3552
218.000000 90.690 178.8501
220.000000 90.823 178.6523
224.000000 91.007 177.5728
227.000000 91.071 176.5632
230.000000 91.092 175.6397
233.000000 91.067 174.7607
236.000000 91.006 173.9705
240.000000 90.918 173.1185
243.000000 90.856 172.6146
247.000000 90.775 172.1022
250.000000 90.712 171.7707
254.000000 90.621 171.2659
258.000000 90.532 170.8462
262.000000 90.448 170.5400
265.000000 90.384 170.3174
269.000000 90.298 170.0359
272.000000 90.236 169.8561
276.000000 90.158 169.6484
280.000000 90.081 169.4698
285.000000 89.984 169.2692
290.000000 89.888 169.1038
295.000000 89.792 168.9745
300.000000 89.696 168.8733
304.000000 89.622 168.7918
307.000000 89.569 168.7429
311.000000 89.499 168.7010
315.000000 89.429 168.6649
320.000000 89.342 168.6189
325.000000 89.256 168.6006
330.000000 89.171 168.6191
335.000000 89.088 168.6471
340.000000 89.003 168.6827
345.000000 88.916 168.7123
350.000000 88.832 168.7565
355.000000 88.756 168.8365
360.000000 88.680 168.9231
365.000000 88.604 169.0262
370.000000 88.527 169.1416
375.000000 88.452 169.2596
382.000000 88.347 169.4265
387.000000 88.275 169.5637
395.000000 88.158 169.8286
400.000000 88.086 169.9904
406.000000 88.003 170.1922
412.000000 87.921 170.4215
418.000000 87.840 170.6571
425.000000 87.746 170.9286
431.000000 87.669 171.1772
437.000000 87.593 171.4586
444.000000 87.506 171.8445
450.000000 87.433 172.1942
455.000000 87.375 172.4141
462.000000 87.292 172.7179
468.000000 87.221 173.0137
475.000000 87.139 173.3724
482.000000 87.058 173.7524
487.000000 87.002 174.0332
494.000000 86.925 174.4332
500.000000 86.861 174.7939
508.000000 86.778 175.2999
515.000000 86.705 175.7544
522.000000 86.635 176.2020
530.000000 86.559 176.6956
538.000000 86.486 177.2195
545.000000 86.423 177.7225
552.000000 86.360 178.2147
560.000000 86.287 178.7440
570.000000 86.197 179.4508
580.000000 86.112 -179.7988
590.000000 86.033 -179.0571
600.000000 85.958 -178.3070
608.000000 85.898 -177.6879
615.000000 85.848 -177.1471
622.000000 85.799 -176.5955
630.000000 85.747 -175.9525
640.000000 85.686 -175.1154
650.000000 85.628 -174.2472
660.000000 85.572 -173.4636
670.000000 85.520 -172.6597
680.000000 85.470 -171.8174
690.000000 85.423 -170.9660
700.000000 85.379 -170.1102
710.000000 85.342 -169.2424
720.000000 85.309 -168.3818
730.000000 85.280 -167.5272
740.000000 85.257 -166.6768
750.000000 85.238 -165.8314
762.000000 85.212 -164.8093
775.000000 85.187 -163.7430
788.000000 85.162 -162.7540
800.000000 85.127 -161.9106
812.000000 85.062 -161.0201
825.000000 84.966 -159.7214
838.000000 84.906 -157.9221
850.000000 84.925 -156.1478
862.000000 84.996 -154.6456
875.000000 85.085 -153.3026
885.000000 85.150 -152.3926
900.000000 85.244 -151.1290
912.000000 85.319 -150.1544
925.000000 85.399 -149.1343
938.000000 85.481 -148.1735
950.000000 85.557 -147.3273
962.000000 85.637 -146.4834
975.000000 85.727 -145.6100
988.000000 85.819 -144.7953
1000.000000 85.907 -144.0837
1015.000000 86.019 -143.2600
1030.000000 86.131 -142.5010
1044.000000 86.237 -141.8404
1060.000000 86.364 -141.1860
1075.000000 86.480 -140.6661
1090.000000 86.591 -140.2208
1106.000000 86.707 -139.8204
1120.000000 86.804 -139.5435
1138.000000 86.927 -139.3101
1150.000000 87.004 -139.2216
1172.000000 87.127 -139.1920
1180.000000 87.165 -139.2407
1206.000000 87.253 -139.6514
1220.000000 87.267 -140.0316
1241.000000 87.215 -140.7507
1250.000000 87.157 -141.0662
1265.000000 87.003 -141.4658
1280.000000 86.776 -141.4694
1315.000000 86.137 -138.4446
1320.000000 86.070 -137.6420
1340.000000 85.950 -133.9750
1360.000000 86.068 -130.4532
1380.000000 86.320 -127.7702
1400.000000 86.608 -125.9376
1430.000000 87.003 -124.2366
1450.000000 87.227 -123.4956
1475.000000 87.465 -122.7448
1500.000000 87.672 -122.1086
1525.000000 87.852 -121.5230
1550.000000 88.016 -120.9737
1575.000000 88.172 -120.4222
1600.000000 88.321 -119.8759
1625.000000 88.462 -119.3444
1650.000000 88.600 -118.8167
1675.000000 88.735 -118.3004
1700.000000 88.870 -117.7906
1725.000000 89.004 -117.2905
1750.000000 89.136 -116.8145
1775.000000 89.268 -116.3704
1800.000000 89.400 -115.9484
1825.000000 89.533 -115.5480
1850.000000 89.666 -115.1727
1875.000000 89.799 -114.8350
1900.000000 89.931 -114.5384
1925.000000 90.063 -114.2795
1950.000000 90.195 -114.0555
1975.000000 90.328 -113.8647
2000.000000 90.459 -113.7123
2030.000000 90.613 -113.5814
2060.000000 90.764 -113.5175
2090.000000 90.911 -113.5312
2120.000000 91.054 -113.6085
2140.000000 91.145 -113.6910
2180.000000 91.319 -113.9373
2200.000000 91.400 -114.1017
2240.000000 91.548 -114.5035
2270.000000 91.646 -114.8621
2300.000000 91.732 -115.2567
2330.000000 91.806 -115.6808
2360.000000 91.864 -116.1257
2400.000000 91.919 -116.7031
2430.000000 91.943 -117.0755
2470.000000 91.959 -117.4312
2500.000000 91.968 -117.5620
2540.000000 91.999 -117.5577
2580.000000 92.077 -117.4985
2620.000000 92.206 -117.6951
2650.000000 92.314 -118.1758
2690.000000 92.424 -119.2666
2720.000000 92.462 -120.2975
2760.000000 92.445 -121.7328
2800.000000 92.366 -123.0569
2850.000000 92.208 -124.4364
2900.000000 92.011 -125.4973
2950.000000 91.789 -126.2600
3000.000000 91.551 -126.7671
3040.000000 91.355 -127.0121
3070.000000 91.206 -127.1102
3110.000000 91.006 -127.1316
3150.000000 90.806 -127.0370
3200.000000 90.556 -126.7825
3250.000000 90.311 -126.3942
3300.000000 90.068 -125.8737
3350.000000 89.828 -125.2488
3400.000000 89.593 -124.5276
3450.000000 89.364 -123.7067
3500.000000 89.138 -122.8041
3550.000000 88.918 -121.8371
3600.000000 88.706 -120.8076
3650.000000 88.498 -119.7101
3700.000000 88.293 -118.5615
3750.000000 88.091 -117.3695
3820.000000 87.811 -115.6031
3870.000000 87.615 -114.2510
3950.000000 87.316 -111.9050
4000.000000 87.143 -110.3552
4060.000000 86.953 -108.4482
4120.000000 86.782 -106.5161
4180.000000 86.627 -104.6051
4250.000000 86.460 -102.4332
4310.000000 86.323 -100.6127
4370.000000 86.188 -98.8174
4440.000000 86.027 -96.7302
4500.000000 85.886 -94.9253
4550.000000 85.769 -93.3848
4620.000000 85.611 -91.1466
4680.000000 85.488 -89.1660
4750.000000 85.362 -86.8488
4820.000000 85.253 -84.5717
4870.000000 85.184 -82.9871
4940.000000 85.094 -80.8442
5000.000000 85.021 -79.0787
5080.000000 84.925 -76.8212
5150.000000 84.839 -74.9474
5220.000000 84.747 -73.1437
5300.000000 84.632 -71.1414
5380.000000 84.503 -69.2177
5450.000000 84.376 -67.6047
5520.000000 84.234 -66.0450
5600.000000 84.043 -64.2952
5700.000000 83.756 -62.0762
5800.000000 83.414 -59.7152
5900.000000 83.017 -57.1250
6000.000000 82.564 -54.2380
6080.000000 82.156 -51.6729
6150.000000 81.753 -49.1680
6220.000000 81.299 -46.2964
6300.000000 80.711 -42.3052
6400.000000 79.882 -35.6136
6500.000000 79.034 -25.9923
6600.000000 78.468 -12.6157
6700.000000 78.748 3.6008
6800.000000 80.172 19.1183
6900.000000 82.301 30.0469
7000.000000 84.514 34.9339
7100.000000 86.449 34.5408
7200.000000 87.949 30.4332
7300.000000 88.965 24.2751
7400.000000 89.527 17.5699
7500.000000 89.714 11.4258
7620.000000 89.592 5.6215
7750.000000 89.211 1.5483
7880.000000 88.727 -0.4215
8000.000000 88.293 -0.6583
8120.000000 87.953 0.2606
8250.000000 87.762 1.8690
8380.000000 87.751 3.1471
8500.000000 87.796 3.5095
8620.000000 87.796 3.2556
8750.000000 87.715 2.8013
8850.000000 87.614 2.5400
9000.000000 87.438 2.3239
9120.000000 87.289 2.1794
9250.000000 87.101 1.9047
9380.000000 86.826 1.5551
9500.000000 86.405 2.1206
9620.000000 86.039 6.3850
9750.000000 86.880 14.3568
9880.000000 88.312 13.4071
10000.000000 88.657 5.2681
10150.000000 88.223 -2.6923
10300.000000 87.635 -7.3919
10440.000000 87.084 -10.7167
10600.000000 86.409 -13.8956
10750.000000 85.720 -16.2905
10900.000000 84.986 -18.0663
11060.000000 84.174 -19.2745
11200.000000 83.459 -19.7791
11380.000000 82.554 -19.7463
11500.000000 81.969 -19.3605
11720.000000 80.959 -18.0782
11800.000000 80.614 -17.4644
12060.000000 79.572 -15.0908
12200.000000 79.065 -13.6416
12410.000000 78.374 -11.3820
12500.000000 78.102 -10.4128
12650.000000 77.680 -8.8082
12800.000000 77.293 -7.2454
13150.000000 76.522 -4.0177
13200.000000 76.424 -3.6299
13400.000000 76.068 -2.3735
13600.000000 75.753 -1.6146
13800.000000 75.457 -1.3533
14000.000000 75.162 -1.6321
14300.000000 74.687 -3.0065
14500.000000 74.359 -4.4045
14750.000000 73.947 -6.5203
15000.000000 73.563 -9.8348
15250.000000 73.138 -14.6079
15500.000000 72.593 -20.5667
15750.000000 71.919 -27.3394
16000.000000 71.134 -34.6316
16250.000000 70.292 -42.4848
16500.000000 69.423 -51.0002
16750.000000 68.564 -60.2773
17000.000000 67.751 -70.6013
17250.000000 67.016 -82.2433
17500.000000 66.413 -95.4020
17750.000000 65.989 -110.4662
18000.000000 65.809 -128.0425
18250.000000 65.956 -148.8123
18500.000000 66.474 -173.5236
18750.000000 67.298 156.5409
19000.000000 68.190 119.6785
19250.000000 68.724 75.0796
19500.000000 68.466 24.8547
19750.000000 67.348 -22.5762
