* Measurement data measured by REW V5.20.9
* Source: Frequency Response Averaged data
* Format: Averaged data produced from the rms magnitudes of Jul 11, Jul 11, Jul 11
* Dated: 11/07/2022 8:34:08 PM
* REW Settings:
*  C-weighting compensation: Off
*  Target level: 75.0 dB
* Note: ; Averaged data produced from the rms magnitudes of Jul 11, Jul 11, Jul 11
* Measurement: Final E5000 - R
* Smoothing: 1/24 octave
* Frequency Step: 1/48 octave
* Start Frequency: 2.200 Hz
*
* Freq(Hz) SPL(dB)
2.200000 69.611
2.240000 69.882
2.270000 70.085
2.300000 70.289
2.330000 70.492
2.360000 70.696
2.400000 70.967
2.430000 71.170
2.470000 71.441
2.500000 71.645
2.540000 71.916
2.580000 72.191
2.620000 72.481
2.650000 72.705
2.690000 73.007
2.720000 73.234
2.760000 73.535
2.800000 73.830
2.850000 74.182
2.900000 74.510
2.950000 74.804
3.000000 75.068
3.040000 75.261
3.070000 75.398
3.110000 75.572
3.150000 75.738
3.200000 75.940
3.250000 76.139
3.300000 76.343
3.350000 76.547
3.400000 76.746
3.450000 76.941
3.500000 77.130
3.550000 77.316
3.600000 77.497
3.650000 77.674
3.700000 77.846
3.750000 78.012
3.820000 78.237
3.870000 78.393
3.950000 78.637
4.000000 78.786
4.060000 78.964
4.120000 79.139
4.180000 79.309
4.250000 79.504
4.310000 79.668
4.370000 79.829
4.440000 80.015
4.500000 80.172
4.550000 80.300
4.620000 80.477
4.680000 80.626
4.750000 80.796
4.820000 80.962
4.870000 81.078
4.940000 81.238
5.000000 81.372
5.080000 81.547
5.150000 81.697
5.220000 81.844
5.300000 82.008
5.380000 82.169
5.450000 82.307
5.520000 82.443
5.600000 82.595
5.700000 82.780
5.800000 82.963
5.900000 83.143
6.000000 83.321
6.080000 83.461
6.150000 83.583
6.220000 83.704
6.300000 83.842
6.400000 84.012
6.500000 84.180
6.600000 84.346
6.700000 84.509
6.800000 84.670
6.900000 84.827
7.000000 84.980
7.100000 85.130
7.200000 85.275
7.300000 85.415
7.400000 85.551
7.500000 85.682
7.620000 85.833
7.750000 85.992
7.880000 86.143
8.000000 86.279
8.120000 86.413
8.250000 86.555
8.380000 86.696
8.500000 86.827
8.620000 86.958
8.750000 87.100
8.850000 87.209
9.000000 87.373
9.120000 87.501
9.250000 87.637
9.380000 87.770
9.500000 87.888
9.620000 87.999
9.750000 88.113
9.880000 88.221
10.000000 88.313
10.150000 88.420
10.300000 88.523
10.440000 88.613
10.600000 88.715
10.750000 88.813
10.900000 88.912
11.060000 89.022
11.200000 89.123
11.380000 89.254
11.500000 89.342
11.720000 89.498
11.800000 89.551
12.060000 89.705
12.200000 89.771
12.410000 89.850
12.500000 89.876
12.650000 89.909
12.800000 89.935
13.150000 89.991
13.200000 90.002
13.400000 90.057
13.600000 90.138
13.800000 90.250
14.000000 90.386
14.300000 90.625
14.500000 90.788
14.750000 90.972
15.000000 91.124
15.250000 91.231
15.500000 91.301
15.750000 91.342
16.000000 91.373
16.250000 91.410
16.500000 91.463
16.750000 91.540
17.000000 91.635
17.250000 91.739
17.500000 91.844
17.750000 91.939
18.000000 92.021
18.250000 92.091
18.500000 92.152
18.750000 92.212
19.000000 92.273
19.250000 92.342
19.500000 92.417
19.750000 92.497
20.000000 92.576
20.299999 92.661
20.600000 92.730
20.900000 92.779
21.200001 92.810
21.400000 92.825
21.799999 92.854
22.000000 92.877
22.400000 92.948
22.700001 93.025
23.000000 93.115
23.299999 93.203
23.600000 93.277
24.000000 93.341
24.299999 93.363
24.700001 93.370
25.000000 93.374
25.400000 93.391
25.799999 93.428
26.200001 93.477
26.500000 93.514
26.900000 93.557
27.200001 93.584
27.600000 93.616
28.000000 93.647
28.500000 93.687
29.000000 93.725
29.500000 93.758
30.000000 93.783
30.400000 93.796
30.700001 93.801
31.100000 93.806
31.500000 93.811
32.000000 93.822
32.500000 93.839
33.000000 93.852
33.500000 93.858
34.000000 93.862
34.500000 93.875
35.000000 93.897
35.500000 93.920
36.000000 93.935
36.500000 93.937
37.000000 93.935
37.500000 93.932
38.200001 93.928
38.700001 93.920
39.500000 93.902
40.000000 93.885
40.599998 93.856
41.200001 93.822
41.799999 93.801
42.500000 93.801
43.099998 93.805
43.700001 93.802
44.400002 93.794
45.000000 93.788
45.500000 93.780
46.200001 93.764
46.799999 93.748
47.500000 93.726
48.200001 93.701
48.700001 93.687
49.400002 93.681
50.000000 93.674
50.799999 93.625
51.500000 93.543
52.200001 93.472
53.000000 93.437
53.799999 93.423
54.500000 93.407
55.200001 93.389
56.000000 93.366
57.000000 93.326
58.000000 93.286
59.000000 93.236
60.000000 93.174
60.799999 93.125
61.500000 93.082
62.200001 93.043
63.000000 93.002
64.000000 92.956
65.000000 92.914
66.000000 92.868
67.000000 92.811
68.000000 92.751
69.000000 92.694
70.000000 92.639
71.000000 92.584
72.000000 92.528
73.000000 92.472
74.000000 92.416
75.000000 92.360
76.199997 92.293
77.500000 92.222
78.800003 92.150
80.000000 92.081
81.199997 92.017
82.500000 91.953
83.800003 91.888
85.000000 91.823
86.199997 91.753
87.500000 91.683
88.500000 91.633
90.000000 91.564
91.199997 91.507
92.500000 91.439
93.800003 91.364
95.000000 91.291
96.199997 91.221
97.500000 91.150
98.800003 91.070
100.000000 90.998
101.500000 90.934
103.000000 90.864
104.400002 90.809
106.000000 90.735
107.500000 90.638
109.000000 90.550
110.599998 90.475
112.000000 90.434
113.800003 90.373
115.000000 90.323
117.199997 90.230
118.000000 90.193
120.599998 90.053
122.000000 89.981
124.099998 89.881
125.000000 89.839
126.500000 89.770
128.000000 89.702
131.500000 89.561
132.000000 89.542
134.000000 89.452
136.000000 89.331
138.000000 89.221
140.000000 89.133
143.000000 89.012
145.000000 88.929
147.500000 88.828
150.000000 88.743
152.500000 88.669
155.000000 88.608
157.500000 88.571
160.000000 88.533
162.500000 88.475
165.000000 88.433
167.500000 88.410
170.000000 88.381
172.500000 88.373
175.000000 88.357
177.500000 88.310
180.000000 88.247
182.500000 88.185
185.000000 88.122
187.500000 88.057
190.000000 87.991
192.500000 87.926
195.000000 87.860
197.500000 87.798
200.000000 87.731
203.000000 87.648
206.000000 87.572
209.000000 87.501
212.000000 87.431
214.000000 87.383
218.000000 87.290
220.000000 87.244
224.000000 87.152
227.000000 87.086
230.000000 87.023
233.000000 86.960
236.000000 86.896
240.000000 86.815
243.000000 86.755
247.000000 86.679
250.000000 86.624
254.000000 86.546
258.000000 86.468
262.000000 86.397
265.000000 86.346
269.000000 86.276
272.000000 86.223
276.000000 86.155
280.000000 86.088
285.000000 86.010
290.000000 85.933
295.000000 85.857
300.000000 85.785
304.000000 85.727
307.000000 85.686
311.000000 85.634
315.000000 85.584
320.000000 85.521
325.000000 85.460
330.000000 85.402
335.000000 85.344
340.000000 85.287
345.000000 85.232
350.000000 85.179
355.000000 85.126
360.000000 85.074
365.000000 85.023
370.000000 84.974
375.000000 84.926
382.000000 84.863
387.000000 84.818
395.000000 84.748
400.000000 84.707
406.000000 84.658
412.000000 84.608
418.000000 84.561
425.000000 84.507
431.000000 84.461
437.000000 84.419
444.000000 84.371
450.000000 84.331
455.000000 84.299
462.000000 84.253
468.000000 84.215
475.000000 84.173
482.000000 84.132
487.000000 84.104
494.000000 84.066
500.000000 84.035
508.000000 83.994
515.000000 83.959
522.000000 83.927
530.000000 83.890
538.000000 83.852
545.000000 83.820
552.000000 83.790
560.000000 83.760
570.000000 83.726
580.000000 83.694
590.000000 83.662
600.000000 83.630
608.000000 83.607
615.000000 83.588
622.000000 83.571
630.000000 83.554
640.000000 83.533
650.000000 83.517
660.000000 83.504
670.000000 83.492
680.000000 83.483
690.000000 83.477
700.000000 83.475
710.000000 83.476
720.000000 83.478
730.000000 83.482
740.000000 83.488
750.000000 83.498
762.000000 83.522
775.000000 83.550
788.000000 83.582
800.000000 83.617
812.000000 83.655
825.000000 83.699
838.000000 83.746
850.000000 83.791
862.000000 83.836
875.000000 83.879
885.000000 83.906
900.000000 83.934
912.000000 83.938
925.000000 83.919
938.000000 83.873
950.000000 83.812
962.000000 83.740
975.000000 83.661
988.000000 83.595
1000.000000 83.559
1015.000000 83.556
1030.000000 83.600
1044.000000 83.676
1060.000000 83.793
1075.000000 83.922
1090.000000 84.060
1106.000000 84.206
1120.000000 84.332
1138.000000 84.488
1150.000000 84.588
1172.000000 84.759
1180.000000 84.817
1206.000000 84.994
1220.000000 85.081
1241.000000 85.202
1250.000000 85.249
1265.000000 85.322
1280.000000 85.389
1315.000000 85.529
1320.000000 85.547
1340.000000 85.612
1360.000000 85.668
1380.000000 85.715
1400.000000 85.754
1430.000000 85.797
1450.000000 85.812
1475.000000 85.818
1500.000000 85.809
1525.000000 85.790
1550.000000 85.768
1575.000000 85.748
1600.000000 85.738
1625.000000 85.737
1650.000000 85.749
1675.000000 85.772
1700.000000 85.804
1725.000000 85.841
1750.000000 85.882
1775.000000 85.925
1800.000000 85.970
1825.000000 86.017
1850.000000 86.066
1875.000000 86.114
1900.000000 86.162
1925.000000 86.212
1950.000000 86.262
1975.000000 86.313
2000.000000 86.365
2030.000000 86.427
2060.000000 86.489
2090.000000 86.551
2120.000000 86.612
2140.000000 86.652
2180.000000 86.733
2200.000000 86.773
2240.000000 86.850
2270.000000 86.906
2300.000000 86.961
2330.000000 87.013
2360.000000 87.063
2400.000000 87.125
2430.000000 87.170
2470.000000 87.226
2500.000000 87.267
2540.000000 87.323
2580.000000 87.390
2620.000000 87.482
2650.000000 87.581
2690.000000 87.763
2720.000000 87.935
2760.000000 88.187
2800.000000 88.422
2850.000000 88.648
2900.000000 88.786
2950.000000 88.856
3000.000000 88.884
3040.000000 88.890
3070.000000 88.890
3110.000000 88.894
3150.000000 88.907
3200.000000 88.932
3250.000000 88.953
3300.000000 88.956
3350.000000 88.938
3400.000000 88.902
3450.000000 88.852
3500.000000 88.790
3550.000000 88.717
3600.000000 88.634
3650.000000 88.540
3700.000000 88.435
3750.000000 88.319
3820.000000 88.141
3870.000000 88.005
3950.000000 87.772
4000.000000 87.618
4060.000000 87.423
4120.000000 87.224
4180.000000 87.034
4250.000000 86.818
4310.000000 86.640
4370.000000 86.459
4440.000000 86.249
4500.000000 86.074
4550.000000 85.928
4620.000000 85.721
4680.000000 85.541
4750.000000 85.326
4820.000000 85.109
4870.000000 84.955
4940.000000 84.747
5000.000000 84.580
5080.000000 84.378
5150.000000 84.220
5220.000000 84.077
5300.000000 83.935
5380.000000 83.812
5450.000000 83.717
5520.000000 83.633
5600.000000 83.550
5700.000000 83.462
5800.000000 83.386
5900.000000 83.315
6000.000000 83.240
6080.000000 83.175
6150.000000 83.118
6220.000000 83.067
6300.000000 83.025
6400.000000 83.007
6500.000000 83.040
6600.000000 83.130
6700.000000 83.276
6800.000000 83.475
6900.000000 83.724
7000.000000 84.024
7100.000000 84.374
7200.000000 84.769
7300.000000 85.206
7400.000000 85.681
7500.000000 86.193
7620.000000 86.846
7750.000000 87.576
7880.000000 88.279
8000.000000 88.843
8120.000000 89.257
8250.000000 89.466
8380.000000 89.392
8500.000000 89.084
8620.000000 88.594
8750.000000 87.934
8850.000000 87.383
9000.000000 86.563
9120.000000 85.954
9250.000000 85.374
9380.000000 84.895
9500.000000 84.553
9620.000000 84.314
9750.000000 84.174
9880.000000 84.157
10000.000000 84.250
10150.000000 84.503
10300.000000 84.813
10440.000000 85.062
10600.000000 85.239
10750.000000 85.253
10900.000000 85.094
11060.000000 84.760
11200.000000 84.382
11380.000000 83.876
11500.000000 83.576
11720.000000 83.182
11800.000000 83.096
12060.000000 82.971
12200.000000 82.922
12410.000000 82.659
12500.000000 82.415
12650.000000 81.774
12800.000000 80.841
13150.000000 77.997
13200.000000 77.571
13400.000000 75.904
13600.000000 74.339
13800.000000 72.898
14000.000000 71.587
14300.000000 69.856
14500.000000 68.864
14750.000000 67.772
15000.000000 66.819
15250.000000 66.014
15500.000000 65.330
15750.000000 64.743
16000.000000 64.238
16250.000000 63.801
16500.000000 63.425
16750.000000 63.103
17000.000000 62.819
17250.000000 62.578
17500.000000 62.361
17750.000000 62.157
18000.000000 61.960
18250.000000 61.810
18500.000000 61.823
18750.000000 62.168
19000.000000 62.885
19250.000000 63.624
19500.000000 63.952
19750.000000 63.771
