* Measurement data measured by REW V5.20.9
* Source: Input device not selected, no input selected, L, volume: no control. Timing signal peak level -28.3 dBFS, measurement signal peak level -24.8 dBFS
* Format: 256k Log Swept Sine, 1 sweep at -12.0 dBFS using an acoustic timing reference
* Dated: 20/05/2024 8:51:58 PM
* REW Settings:
*  C-weighting compensation: Off
*  Target level: 75.0 dB
* Note: ; Delay -0.0386 ms (-13 mm, -0.52 in) using estimated IR delay relative to Acoustic reference on  R with no timing offset
* Measurement: EA1000 Gold R
* Smoothing: 1/24 octave
* Frequency Step: 1/48 octave
* Start Frequency: 1.000 Hz
*
* Freq(Hz) SPL(dB) Phase(degrees)
1.000000 39.594 128.6756
1.015000 39.614 127.8215
1.030000 39.636 126.9864
1.044000 39.659 126.2266
1.060000 39.688 125.3842
1.075000 39.718 124.6225
1.090000 39.751 123.8905
1.106000 39.789 123.1446
1.120000 39.825 122.5173
1.138000 39.874 121.7417
1.150000 39.909 121.2426
1.172000 39.975 120.3614
1.180000 40.000 120.0509
1.206000 40.086 119.0741
1.220000 40.135 118.5661
1.241000 40.211 117.8237
1.250000 40.245 117.5116
1.265000 40.303 116.9983
1.280000 40.362 116.4919
1.315000 40.509 115.3266
1.320000 40.531 115.1610
1.340000 40.620 114.4982
1.360000 40.712 113.8316
1.380000 40.807 113.1566
1.400000 40.905 112.4692
1.430000 41.058 111.4051
1.450000 41.163 110.6675
1.475000 41.299 109.7084
1.500000 41.441 108.7234
1.525000 41.590 107.7196
1.550000 41.745 106.7004
1.575000 41.906 105.6693
1.600000 42.072 104.6294
1.625000 42.242 103.5843
1.650000 42.416 102.5371
1.675000 42.594 101.4913
1.700000 42.775 100.4501
1.725000 42.959 99.4170
1.750000 43.144 98.3953
1.775000 43.330 97.3883
1.800000 43.518 96.3994
1.825000 43.706 95.4318
1.850000 43.895 94.4863
1.875000 44.089 93.5570
1.900000 44.286 92.6422
1.925000 44.487 91.7401
1.950000 44.690 90.8491
1.975000 44.896 89.9676
2.000000 45.104 89.0938
2.030000 45.355 88.0532
2.060000 45.607 87.0186
2.090000 45.858 85.9871
2.120000 46.109 84.9558
2.140000 46.276 84.2669
2.180000 46.605 82.8824
2.200000 46.768 82.1850
2.240000 47.092 80.7836
2.270000 47.336 79.7300
2.300000 47.581 78.6756
2.330000 47.825 77.6220
2.360000 48.069 76.5705
2.400000 48.392 75.1744
2.430000 48.633 74.1334
2.470000 48.951 72.7564
2.500000 49.187 71.7336
2.540000 49.497 70.3860
2.580000 49.801 69.0584
2.620000 50.102 67.7412
2.650000 50.325 66.7596
2.690000 50.619 65.4608
2.720000 50.837 64.4954
2.760000 51.125 63.2214
2.800000 51.409 61.9645
2.850000 51.758 60.4205
2.900000 52.101 58.9106
2.950000 52.436 57.4384
3.000000 52.764 56.0027
3.040000 53.022 54.8782
3.070000 53.213 54.0480
3.110000 53.463 52.9576
3.150000 53.710 51.8847
3.200000 54.014 50.5663
3.250000 54.312 49.2705
3.300000 54.606 47.9947
3.350000 54.895 46.7382
3.400000 55.177 45.5031
3.450000 55.454 44.2915
3.500000 55.726 43.1050
3.550000 55.993 41.9458
3.600000 56.257 40.8157
3.650000 56.519 39.7167
3.700000 56.777 38.6528
3.750000 57.030 37.6270
3.820000 57.379 36.2446
3.870000 57.624 35.2876
3.950000 58.010 33.7931
4.000000 58.248 32.8729
4.060000 58.532 31.7766
4.120000 58.812 30.7017
4.180000 59.088 29.6488
4.250000 59.405 28.4456
4.310000 59.674 27.4337
4.370000 59.940 26.4376
4.440000 60.246 25.2969
4.500000 60.506 24.3439
4.550000 60.720 23.5640
4.620000 61.016 22.4882
4.680000 61.266 21.5754
4.750000 61.554 20.5142
4.820000 61.837 19.4546
4.870000 62.037 18.7026
4.940000 62.313 17.6576
5.000000 62.545 16.7698
5.080000 62.850 15.5986
5.150000 63.112 14.5863
5.220000 63.369 13.5843
5.300000 63.657 12.4520
5.380000 63.938 11.3350
5.450000 64.180 10.3712
5.520000 64.417 9.4209
5.600000 64.683 8.3494
5.700000 65.006 7.0329
5.800000 65.321 5.7451
5.900000 65.630 4.4893
6.000000 65.931 3.2651
6.080000 66.167 2.3072
6.150000 66.370 1.4838
6.220000 66.571 0.6737
6.300000 66.798 -0.2337
6.400000 67.077 -1.3399
6.500000 67.351 -2.4226
6.600000 67.621 -3.4904
6.700000 67.888 -4.5404
6.800000 68.151 -5.5719
6.900000 68.410 -6.5922
7.000000 68.665 -7.6071
7.100000 68.918 -8.6120
7.200000 69.166 -9.6091
7.300000 69.410 -10.6032
7.400000 69.649 -11.5974
7.500000 69.885 -12.5895
7.620000 70.161 -13.7752
7.750000 70.452 -15.0523
7.880000 70.734 -16.3242
8.000000 70.987 -17.4881
8.120000 71.233 -18.6375
8.250000 71.491 -19.8702
8.380000 71.740 -21.0831
8.500000 71.964 -22.1801
8.620000 72.180 -23.2579
8.750000 72.408 -24.4009
8.850000 72.580 -25.2605
9.000000 72.830 -26.5195
9.120000 73.025 -27.5010
9.250000 73.231 -28.5385
9.380000 73.433 -29.5488
9.500000 73.616 -30.4601
9.620000 73.796 -31.3515
9.750000 73.987 -32.2940
9.880000 74.175 -33.2169
10.000000 74.347 -34.0521
10.150000 74.558 -35.0734
10.300000 74.766 -36.0767
10.440000 74.957 -36.9952
10.600000 75.174 -38.0306
10.750000 75.374 -38.9920
10.900000 75.572 -39.9442
11.060000 75.780 -40.9592
11.200000 75.960 -41.8453
11.380000 76.186 -42.9876
11.500000 76.334 -43.7528
11.720000 76.599 -45.1593
11.800000 76.692 -45.6721
12.060000 76.986 -47.3385
12.200000 77.137 -48.2283
12.410000 77.356 -49.5500
12.500000 77.446 -50.1057
12.650000 77.593 -51.0200
12.800000 77.736 -51.9147
13.150000 78.058 -53.9136
13.200000 78.103 -54.1905
13.400000 78.282 -55.2737
13.600000 78.460 -56.3360
13.800000 78.638 -57.3818
14.000000 78.815 -58.4307
14.300000 79.076 -60.0198
14.500000 79.246 -61.1017
14.750000 79.449 -62.4705
15.000000 79.641 -63.8501
15.250000 79.820 -65.2142
15.500000 79.987 -66.5385
15.750000 80.145 -67.8095
16.000000 80.297 -69.0134
16.250000 80.447 -70.1606
16.500000 80.597 -71.2626
16.750000 80.750 -72.3401
17.000000 80.902 -73.4168
17.250000 81.053 -74.5001
17.500000 81.199 -75.5977
17.750000 81.340 -76.6986
18.000000 81.473 -77.7912
18.250000 81.598 -78.8620
18.500000 81.718 -79.8955
18.750000 81.834 -80.8910
19.000000 81.948 -81.8481
19.250000 82.062 -82.7793
19.500000 82.177 -83.6967
19.750000 82.291 -84.6101
20.000000 82.404 -85.5312
20.299999 82.535 -86.6471
20.600000 82.659 -87.7706
20.900000 82.776 -88.8908
21.200001 82.885 -89.9938
21.400000 82.954 -90.7130
21.799999 83.085 -92.1080
22.000000 83.147 -92.7836
22.400000 83.271 -94.0977
22.700001 83.362 -95.0620
23.000000 83.452 -96.0196
23.299999 83.539 -96.9765
23.600000 83.623 -97.9312
24.000000 83.726 -99.1871
24.299999 83.799 -100.0988
24.700001 83.891 -101.2537
25.000000 83.961 -102.0718
25.400000 84.059 -103.1169
25.799999 84.165 -104.1533
26.200001 84.274 -105.2247
26.500000 84.355 -106.0610
26.900000 84.454 -107.2059
27.200001 84.520 -108.0625
27.600000 84.598 -109.1652
28.000000 84.668 -110.1917
28.500000 84.754 -111.3641
29.000000 84.848 -112.4689
29.500000 84.948 -113.5863
30.000000 85.042 -114.7637
30.400000 85.104 -115.7289
30.700001 85.142 -116.4371
31.100000 85.182 -117.3188
31.500000 85.218 -118.1087
32.000000 85.269 -118.9939
32.500000 85.333 -119.8553
33.000000 85.403 -120.7747
33.500000 85.466 -121.7542
34.000000 85.519 -122.7382
34.500000 85.566 -123.6821
35.000000 85.613 -124.5889
35.500000 85.661 -125.4860
36.000000 85.708 -126.3856
36.500000 85.751 -127.2759
37.000000 85.792 -128.1394
37.500000 85.831 -128.9722
38.200001 85.885 -130.1001
38.700001 85.922 -130.8838
39.500000 85.977 -132.0880
40.000000 86.011 -132.8131
40.599998 86.053 -133.6777
41.200001 86.091 -134.5558
41.799999 86.124 -135.4397
42.500000 86.153 -136.4429
43.099998 86.174 -137.2551
43.700001 86.198 -138.0290
44.400002 86.230 -138.9160
45.000000 86.258 -139.6750
45.500000 86.280 -140.2903
46.200001 86.312 -141.1154
46.799999 86.343 -141.8224
47.500000 86.370 -142.6552
48.200001 86.386 -143.3927
48.700001 86.402 -143.8406
49.400002 86.441 -144.4930
50.000000 86.474 -145.1846
50.799999 86.483 -146.1698
51.500000 86.473 -146.9011
52.200001 86.472 -147.5527
53.000000 86.477 -148.3361
53.799999 86.480 -149.1425
54.500000 86.484 -149.8421
55.200001 86.488 -150.5374
56.000000 86.491 -151.2882
57.000000 86.505 -152.1651
58.000000 86.520 -153.0277
59.000000 86.530 -153.8307
60.000000 86.540 -154.5924
60.799999 86.544 -155.2007
61.500000 86.544 -155.7322
62.200001 86.540 -156.2614
63.000000 86.533 -156.8603
64.000000 86.522 -157.6024
65.000000 86.509 -158.3354
66.000000 86.497 -159.0294
67.000000 86.490 -159.6933
68.000000 86.485 -160.3535
69.000000 86.478 -160.9854
70.000000 86.470 -161.5836
71.000000 86.461 -162.1682
72.000000 86.449 -162.7386
73.000000 86.436 -163.2913
74.000000 86.424 -163.8379
75.000000 86.411 -164.3893
76.199997 86.393 -165.0460
77.500000 86.372 -165.7197
78.800003 86.351 -166.3718
80.000000 86.331 -166.9602
81.199997 86.310 -167.5305
82.500000 86.288 -168.1316
83.800003 86.265 -168.7166
85.000000 86.244 -169.2414
86.199997 86.223 -169.7549
87.500000 86.196 -170.2938
88.500000 86.173 -170.6813
90.000000 86.142 -171.2313
91.199997 86.120 -171.6873
92.500000 86.094 -172.1948
93.800003 86.065 -172.6785
95.000000 86.040 -173.1068
96.199997 86.015 -173.5192
97.500000 85.986 -173.9440
98.800003 85.957 -174.3561
100.000000 85.929 -174.7363
101.500000 85.891 -175.1962
103.000000 85.854 -175.6269
104.400002 85.823 -176.0135
106.000000 85.788 -176.4527
107.500000 85.753 -176.8588
109.000000 85.715 -177.2565
110.599998 85.674 -177.6700
112.000000 85.638 -178.0203
113.800003 85.595 -178.4373
115.000000 85.570 -178.6969
117.199997 85.523 -179.1587
118.000000 85.506 -179.3289
120.599998 85.441 -179.8993
122.000000 85.402 179.8173
124.099998 85.348 179.4395
125.000000 85.326 179.2870
126.500000 85.290 179.0404
128.000000 85.254 178.8024
131.500000 85.169 178.2385
132.000000 85.157 178.1559
134.000000 85.108 177.8364
136.000000 85.058 177.5484
138.000000 85.010 177.2770
140.000000 84.964 177.0081
143.000000 84.894 176.6345
145.000000 84.841 176.4169
147.500000 84.764 176.1485
150.000000 84.690 175.9451
152.500000 84.647 175.7000
155.000000 84.604 175.4189
157.500000 84.550 175.1906
160.000000 84.491 174.9877
162.500000 84.434 174.7993
165.000000 84.378 174.6282
167.500000 84.319 174.4952
170.000000 84.263 174.3597
172.500000 84.209 174.2098
175.000000 84.154 174.0847
177.500000 84.099 173.9839
180.000000 84.045 173.8917
182.500000 83.992 173.8031
185.000000 83.941 173.7159
187.500000 83.888 173.6416
190.000000 83.835 173.5875
192.500000 83.785 173.5408
195.000000 83.738 173.4826
197.500000 83.691 173.4226
200.000000 83.643 173.3827
203.000000 83.585 173.3851
206.000000 83.529 173.4033
209.000000 83.472 173.4095
212.000000 83.415 173.4078
214.000000 83.378 173.4166
218.000000 83.306 173.4704
220.000000 83.270 173.4958
224.000000 83.201 173.5332
227.000000 83.150 173.6010
230.000000 83.097 173.6799
233.000000 83.043 173.7448
236.000000 82.994 173.8266
240.000000 82.932 173.9548
243.000000 82.887 174.0718
247.000000 82.831 174.2747
250.000000 82.789 174.4104
254.000000 82.731 174.5180
258.000000 82.681 174.6458
262.000000 82.631 174.8577
265.000000 82.595 175.0301
269.000000 82.550 175.2042
272.000000 82.516 175.3045
276.000000 82.471 175.4469
280.000000 82.428 175.5978
285.000000 82.378 175.7769
290.000000 82.328 175.9897
295.000000 82.277 176.2154
300.000000 82.225 176.4266
304.000000 82.184 176.6005
307.000000 82.152 176.7336
311.000000 82.111 176.9138
315.000000 82.069 177.0950
320.000000 82.017 177.3271
325.000000 81.967 177.5682
330.000000 81.919 177.8237
335.000000 81.870 178.0859
340.000000 81.822 178.3584
345.000000 81.777 178.6275
350.000000 81.733 178.9060
355.000000 81.687 179.2281
360.000000 81.643 179.5487
365.000000 81.602 179.8570
370.000000 81.561 -179.8340
375.000000 81.521 -179.5107
382.000000 81.468 -179.0428
387.000000 81.433 -178.7081
395.000000 81.377 -178.1800
400.000000 81.341 -177.8482
406.000000 81.302 -177.4365
412.000000 81.264 -177.0179
418.000000 81.227 -176.5941
425.000000 81.187 -176.0901
431.000000 81.154 -175.6570
437.000000 81.121 -175.2274
444.000000 81.083 -174.7442
450.000000 81.052 -174.3264
455.000000 81.030 -173.9347
462.000000 81.002 -173.3746
468.000000 80.978 -172.9124
475.000000 80.950 -172.3851
482.000000 80.924 -171.8555
487.000000 80.908 -171.4735
494.000000 80.885 -170.9395
500.000000 80.867 -170.4814
508.000000 80.846 -169.8647
515.000000 80.830 -169.3233
522.000000 80.816 -168.7783
530.000000 80.801 -168.1545
538.000000 80.789 -167.5510
545.000000 80.781 -167.0347
552.000000 80.773 -166.5065
560.000000 80.766 -165.8835
570.000000 80.760 -165.1188
580.000000 80.757 -164.3710
590.000000 80.753 -163.6332
600.000000 80.750 -162.9010
608.000000 80.750 -162.3149
615.000000 80.751 -161.7971
622.000000 80.753 -161.2761
630.000000 80.756 -160.6867
640.000000 80.761 -159.9506
650.000000 80.770 -159.2038
660.000000 80.775 -158.4688
670.000000 80.783 -157.7304
680.000000 80.794 -156.9807
690.000000 80.808 -156.2225
700.000000 80.825 -155.4643
710.000000 80.844 -154.7095
720.000000 80.864 -153.9448
730.000000 80.888 -153.1760
740.000000 80.915 -152.4069
750.000000 80.946 -151.6370
762.000000 80.983 -150.7208
775.000000 81.028 -149.7319
788.000000 81.080 -148.7291
800.000000 81.134 -147.8071
812.000000 81.192 -146.9002
825.000000 81.259 -145.9282
838.000000 81.330 -144.9780
850.000000 81.403 -144.1185
862.000000 81.483 -143.2572
875.000000 81.576 -142.3414
885.000000 81.651 -141.6625
900.000000 81.771 -140.6793
912.000000 81.875 -139.9277
925.000000 81.996 -139.1686
938.000000 82.130 -138.5025
950.000000 82.262 -138.0692
962.000000 82.378 -137.9455
975.000000 82.426 -138.0246
988.000000 82.385 -137.5975
1000.000000 82.380 -136.4836
1015.000000 82.496 -134.9838
1030.000000 82.670 -133.9039
1044.000000 82.835 -133.1716
1060.000000 83.015 -132.5140
1075.000000 83.178 -132.0323
1090.000000 83.332 -131.6983
1106.000000 83.470 -131.4504
1120.000000 83.564 -131.1707
1138.000000 83.684 -130.6294
1150.000000 83.774 -130.2270
1172.000000 83.955 -129.5473
1180.000000 84.022 -129.3280
1206.000000 84.238 -128.6960
1220.000000 84.351 -128.3903
1241.000000 84.517 -127.9649
1250.000000 84.587 -127.7916
1265.000000 84.703 -127.5108
1280.000000 84.817 -127.2397
1315.000000 85.079 -126.6402
1320.000000 85.115 -126.5586
1340.000000 85.262 -126.2408
1360.000000 85.408 -125.9310
1380.000000 85.553 -125.6280
1400.000000 85.698 -125.3351
1430.000000 85.914 -124.9143
1450.000000 86.059 -124.6477
1475.000000 86.240 -124.3291
1500.000000 86.423 -124.0255
1525.000000 86.606 -123.7460
1550.000000 86.791 -123.4903
1575.000000 86.979 -123.2558
1600.000000 87.169 -123.0460
1625.000000 87.360 -122.8653
1650.000000 87.554 -122.7194
1675.000000 87.750 -122.6032
1700.000000 87.948 -122.5166
1725.000000 88.148 -122.4653
1750.000000 88.351 -122.4559
1775.000000 88.558 -122.4882
1800.000000 88.767 -122.5592
1825.000000 88.980 -122.6798
1850.000000 89.194 -122.8554
1875.000000 89.412 -123.0854
1900.000000 89.634 -123.3677
1925.000000 89.862 -123.7187
1950.000000 90.096 -124.1641
1975.000000 90.335 -124.7233
2000.000000 90.577 -125.4263
2030.000000 90.862 -126.4927
2060.000000 91.134 -127.8150
2090.000000 91.379 -129.3711
2120.000000 91.589 -131.0979
2140.000000 91.707 -132.3135
2180.000000 91.892 -134.8020
2200.000000 91.962 -136.0433
2240.000000 92.062 -138.4747
2270.000000 92.109 -140.2368
2300.000000 92.134 -141.9399
2330.000000 92.140 -143.5825
2360.000000 92.129 -145.1652
2400.000000 92.091 -147.1788
2430.000000 92.044 -148.6105
2470.000000 91.962 -150.4119
2500.000000 91.886 -151.6761
2540.000000 91.769 -153.2347
2580.000000 91.634 -154.6425
2620.000000 91.487 -155.8949
2650.000000 91.371 -156.7343
2690.000000 91.208 -157.7242
2720.000000 91.082 -158.3739
2760.000000 90.912 -159.1177
2800.000000 90.741 -159.7244
2850.000000 90.528 -160.3061
2900.000000 90.318 -160.7102
2950.000000 90.115 -160.9519
3000.000000 89.920 -161.0504
3040.000000 89.769 -161.0363
3070.000000 89.661 -160.9768
3110.000000 89.522 -160.8367
3150.000000 89.390 -160.6347
3200.000000 89.236 -160.3058
3250.000000 89.093 -159.9016
3300.000000 88.961 -159.4355
3350.000000 88.841 -158.9156
3400.000000 88.732 -158.3488
3450.000000 88.634 -157.7424
3500.000000 88.547 -157.1071
3550.000000 88.471 -156.4516
3600.000000 88.406 -155.7801
3650.000000 88.351 -155.0997
3700.000000 88.307 -154.4160
3750.000000 88.273 -153.7331
3820.000000 88.240 -152.7909
3870.000000 88.227 -152.1360
3950.000000 88.226 -151.1273
4000.000000 88.236 -150.5284
4060.000000 88.258 -149.8484
4120.000000 88.290 -149.2221
4180.000000 88.332 -148.6574
4250.000000 88.390 -148.0805
4310.000000 88.447 -147.6629
4370.000000 88.511 -147.3282
4440.000000 88.590 -147.0505
4500.000000 88.660 -146.9102
4550.000000 88.718 -146.8646
4620.000000 88.798 -146.9150
4680.000000 88.861 -147.0610
4750.000000 88.928 -147.3439
4820.000000 88.982 -147.7409
4870.000000 89.013 -148.0870
4940.000000 89.042 -148.6438
5000.000000 89.052 -149.1716
5080.000000 89.044 -149.9206
5150.000000 89.016 -150.5977
5220.000000 88.968 -151.2704
5300.000000 88.890 -151.9998
5380.000000 88.791 -152.6543
5450.000000 88.691 -153.1452
5520.000000 88.582 -153.5544
5600.000000 88.451 -153.9254
5700.000000 88.290 -154.2732
5800.000000 88.137 -154.5642
5900.000000 87.990 -154.9098
6000.000000 87.834 -155.4009
6080.000000 87.686 -155.9025
6150.000000 87.527 -156.3677
6220.000000 87.333 -156.7651
6300.000000 87.071 -156.9938
6400.000000 86.710 -156.6985
6500.000000 86.387 -155.7450
6600.000000 86.134 -154.6632
6700.000000 85.893 -153.5246
6800.000000 85.673 -152.1223
6900.000000 85.498 -150.5190
7000.000000 85.378 -148.8330
7100.000000 85.313 -147.1641
7200.000000 85.299 -145.6014
7300.000000 85.330 -144.2067
7400.000000 85.400 -143.0191
7500.000000 85.507 -142.0770
7620.000000 85.677 -141.3426
7750.000000 85.899 -141.1441
7880.000000 86.142 -141.6809
8000.000000 86.354 -142.9234
8120.000000 86.523 -144.9160
8250.000000 86.617 -147.8665
8380.000000 86.574 -151.4514
8500.000000 86.388 -155.0373
8620.000000 86.054 -158.5737
8750.000000 85.538 -162.0063
8850.000000 85.049 -164.1780
9000.000000 84.212 -166.4830
9120.000000 83.492 -167.4686
9250.000000 82.697 -167.7163
9380.000000 81.917 -167.2032
9500.000000 81.226 -166.1581
9620.000000 80.575 -164.6592
9750.000000 79.920 -162.6157
9880.000000 79.322 -160.2174
10000.000000 78.820 -157.7457
10150.000000 78.262 -154.3847
10300.000000 77.784 -150.8091
10440.000000 77.407 -147.3250
10600.000000 77.055 -143.2326
10750.000000 76.805 -139.3439
10900.000000 76.634 -135.4563
11060.000000 76.540 -131.3427
11200.000000 76.535 -127.7969
11380.000000 76.638 -123.4027
11500.000000 76.779 -120.6182
11720.000000 77.205 -115.9184
11800.000000 77.418 -114.3859
12060.000000 78.334 -110.3836
12200.000000 78.983 -109.0988
12410.000000 80.156 -108.9455
12500.000000 80.717 -109.7653
12650.000000 81.674 -112.6739
12800.000000 82.567 -117.7846
13150.000000 83.830 -137.6776
13200.000000 83.869 -141.2474
13400.000000 83.504 -155.9236
13600.000000 82.311 -167.4773
13800.000000 80.802 -173.3876
14000.000000 79.611 -176.3794
14300.000000 78.366 178.6153
14500.000000 77.552 174.9221
14750.000000 76.476 170.9019
15000.000000 75.404 168.1118
15250.000000 74.498 166.3781
15500.000000 73.864 164.7442
15750.000000 73.480 162.3421
16000.000000 73.288 158.5541
16250.000000 73.225 152.9805
16500.000000 73.207 145.2906
16750.000000 73.120 135.1961
17000.000000 72.790 123.1202
17250.000000 72.173 110.5479
17500.000000 71.416 97.8538
17750.000000 70.560 84.7598
18000.000000 69.633 71.4034
18250.000000 68.715 57.5796
18500.000000 67.861 42.5458
18750.000000 67.070 25.3116
19000.000000 66.254 4.8401
19250.000000 65.228 -19.5736
19500.000000 63.757 -47.3154
19750.000000 61.760 -74.2501
