* Measurement data measured by REW V5.20.9
* Source: Headset (USB-C to 3.5mm Headphone Jack Adapter), MICROPHONE (Master Volume), L, volume: 0.260. Timing signal peak level -31.9 dBFS, measurement signal peak level -28.4 dBFS
* Format: 256k Log Swept Sine, 1 sweep at -12.0 dBFS using an acoustic timing reference
* Dated: 08/08/2024 6:38:17 PM
* REW Settings:
*  C-weighting compensation: Off
*  Target level: 75.0 dB
* Note: ; Delay -0.0889 ms (-30 mm, -1.2 in) using estimated IR delay relative to Acoustic reference on SPEAKER R with no timing offset
* Measurement: EW300 Pink R
* Smoothing: 1/24 octave
* Frequency Step: 1/48 octave
* Start Frequency: 1.000 Hz
*
* Freq(Hz) SPL(dB) Phase(degrees)
1.000000 42.082 116.8298
1.015000 42.339 115.4079
1.030000 42.593 114.0206
1.044000 42.829 112.7616
1.060000 43.094 111.3700
1.075000 43.340 110.1163
1.090000 43.581 108.9169
1.106000 43.834 107.7003
1.120000 44.054 106.6768
1.138000 44.336 105.4102
1.150000 44.523 104.5946
1.172000 44.864 103.1548
1.180000 44.988 102.6477
1.206000 45.387 101.0547
1.220000 45.600 100.2284
1.241000 45.918 99.0249
1.250000 46.053 98.5209
1.265000 46.278 97.6947
1.280000 46.502 96.8834
1.315000 47.018 95.0353
1.320000 47.092 94.7750
1.340000 47.383 93.7399
1.360000 47.671 92.7097
1.380000 47.957 91.6787
1.400000 48.240 90.6410
1.430000 48.660 89.0594
1.450000 48.936 87.9797
1.475000 49.277 86.5947
1.500000 49.614 85.1945
1.525000 49.947 83.7888
1.550000 50.275 82.3809
1.575000 50.599 80.9744
1.600000 50.920 79.5727
1.625000 51.236 78.1794
1.650000 51.548 76.7978
1.675000 51.857 75.4315
1.700000 52.161 74.0839
1.725000 52.462 72.7585
1.750000 52.759 71.4588
1.775000 53.053 70.1882
1.800000 53.343 68.9502
1.825000 53.629 67.7483
1.850000 53.911 66.5850
1.875000 54.189 65.4581
1.900000 54.463 64.3645
1.925000 54.732 63.3011
1.950000 54.998 62.2645
1.975000 55.260 61.2519
2.000000 55.518 60.2599
2.030000 55.824 59.0924
2.060000 56.124 57.9447
2.090000 56.420 56.8115
2.120000 56.712 55.6873
2.140000 56.905 54.9401
2.180000 57.285 53.4440
2.200000 57.472 52.6920
2.240000 57.841 51.1968
2.270000 58.112 50.0893
2.300000 58.378 48.9934
2.330000 58.640 47.9093
2.360000 58.897 46.8369
2.400000 59.234 45.4249
2.430000 59.482 44.3794
2.470000 59.808 43.0031
2.500000 60.048 41.9842
2.540000 60.365 40.6431
2.580000 60.676 39.3221
2.620000 60.981 38.0217
2.650000 61.204 37.0600
2.690000 61.498 35.7956
2.720000 61.713 34.8606
2.760000 61.996 33.6316
2.800000 62.274 32.4224
2.850000 62.614 30.9386
2.900000 62.948 29.4851
2.950000 63.276 28.0629
3.000000 63.595 26.6814
3.040000 63.845 25.6035
3.070000 64.030 24.8087
3.110000 64.271 23.7647
3.150000 64.509 22.7354
3.200000 64.801 21.4646
3.250000 65.087 20.2050
3.300000 65.368 18.9503
3.350000 65.644 17.7008
3.400000 65.914 16.4620
3.450000 66.177 15.2368
3.500000 66.436 14.0283
3.550000 66.689 12.8396
3.600000 66.938 11.6736
3.650000 67.183 10.5334
3.700000 67.424 9.4228
3.750000 67.660 8.3425
3.820000 67.982 6.8719
3.870000 68.207 5.8446
3.950000 68.559 4.2274
4.000000 68.775 3.2256
4.060000 69.029 2.0261
4.120000 69.278 0.8357
4.180000 69.521 -0.3414
4.250000 69.799 -1.6942
4.310000 70.032 -2.8328
4.370000 70.261 -3.9491
4.440000 70.523 -5.2192
4.500000 70.742 -6.2803
4.550000 70.922 -7.1479
4.620000 71.169 -8.3415
4.680000 71.376 -9.3492
4.750000 71.614 -10.5123
4.820000 71.847 -11.6634
4.870000 72.010 -12.4753
4.940000 72.235 -13.5971
5.000000 72.424 -14.5445
5.080000 72.671 -15.7867
5.150000 72.883 -16.8532
5.220000 73.092 -17.8987
5.300000 73.325 -19.0701
5.380000 73.553 -20.2199
5.450000 73.749 -21.2112
5.520000 73.942 -22.1909
5.600000 74.159 -23.2922
5.700000 74.423 -24.6428
5.800000 74.682 -25.9694
5.900000 74.935 -27.2762
6.000000 75.182 -28.5601
6.080000 75.376 -29.5716
6.150000 75.542 -30.4465
6.220000 75.706 -31.3132
6.300000 75.890 -32.2928
6.400000 76.116 -33.4997
6.500000 76.336 -34.6898
6.600000 76.551 -35.8663
6.700000 76.760 -37.0301
6.800000 76.965 -38.1795
6.900000 77.164 -39.3130
7.000000 77.358 -40.4291
7.100000 77.547 -41.5288
7.200000 77.731 -42.6118
7.300000 77.911 -43.6776
7.400000 78.086 -44.7261
7.500000 78.256 -45.7577
7.620000 78.456 -46.9723
7.750000 78.666 -48.2575
7.880000 78.869 -49.5103
8.000000 79.052 -50.6413
8.120000 79.232 -51.7505
8.250000 79.421 -52.9249
8.380000 79.607 -54.0767
8.500000 79.774 -55.1239
8.620000 79.939 -56.1530
8.750000 80.113 -57.2526
8.850000 80.244 -58.0907
9.000000 80.437 -59.3323
9.120000 80.586 -60.3134
9.250000 80.744 -61.3660
9.380000 80.898 -62.4072
9.500000 81.036 -63.3550
9.620000 81.169 -64.2895
9.750000 81.310 -65.2875
9.880000 81.446 -66.2662
10.000000 81.569 -67.1508
10.150000 81.717 -68.2328
10.300000 81.862 -69.2861
10.440000 81.993 -70.2416
10.600000 82.141 -71.3073
10.750000 82.278 -72.2830
10.900000 82.414 -73.2377
11.060000 82.557 -74.2456
11.200000 82.681 -75.1164
11.380000 82.839 -76.2339
11.500000 82.943 -76.9799
11.720000 83.130 -78.3508
11.800000 83.196 -78.8524
12.060000 83.404 -80.4892
12.200000 83.510 -81.3717
12.410000 83.663 -82.6937
12.500000 83.725 -83.2546
12.650000 83.825 -84.1846
12.800000 83.921 -85.1017
13.150000 84.127 -87.1741
13.200000 84.155 -87.4613
13.400000 84.264 -88.5872
13.600000 84.368 -89.6763
13.800000 84.468 -90.7276
14.000000 84.566 -91.7451
14.300000 84.709 -93.2112
14.500000 84.804 -94.1537
14.750000 84.921 -95.3013
15.000000 85.037 -96.4204
15.250000 85.154 -97.5224
15.500000 85.269 -98.6161
15.750000 85.383 -99.7069
16.000000 85.495 -100.8001
16.250000 85.602 -101.8921
16.500000 85.704 -102.9783
16.750000 85.800 -104.0506
17.000000 85.892 -105.0991
17.250000 85.979 -106.1209
17.500000 86.064 -107.1132
17.750000 86.147 -108.0817
18.000000 86.229 -109.0321
18.250000 86.310 -109.9710
18.500000 86.389 -110.9046
18.750000 86.464 -111.8316
19.000000 86.536 -112.7509
19.250000 86.604 -113.6545
19.500000 86.669 -114.5376
19.750000 86.730 -115.3963
20.000000 86.790 -116.2293
20.299999 86.861 -117.2015
20.600000 86.931 -118.1528
20.900000 87.001 -119.0938
21.200001 87.069 -120.0334
21.400000 87.112 -120.6602
21.799999 87.194 -121.9090
22.000000 87.231 -122.5262
22.400000 87.300 -123.7328
22.700001 87.347 -124.6029
23.000000 87.391 -125.4365
23.299999 87.436 -126.2362
23.600000 87.484 -127.0122
24.000000 87.551 -128.0364
24.299999 87.604 -128.8213
24.700001 87.673 -129.9127
25.000000 87.719 -130.7632
25.400000 87.769 -131.9112
25.799999 87.802 -133.0179
26.200001 87.826 -134.0309
26.500000 87.844 -134.7206
26.900000 87.872 -135.5691
27.200001 87.899 -136.1828
27.600000 87.940 -137.0085
28.000000 87.982 -137.8589
28.500000 88.027 -138.9274
29.000000 88.065 -139.9467
29.500000 88.105 -140.9069
30.000000 88.148 -141.8552
30.400000 88.184 -142.6352
30.700001 88.207 -143.2331
31.100000 88.234 -144.0312
31.500000 88.254 -144.8126
32.000000 88.276 -145.7561
32.500000 88.294 -146.6751
33.000000 88.307 -147.5743
33.500000 88.315 -148.4307
34.000000 88.323 -149.2214
34.500000 88.337 -149.9679
35.000000 88.360 -150.7261
35.500000 88.384 -151.5366
36.000000 88.402 -152.3822
36.500000 88.410 -153.2122
37.000000 88.413 -153.9913
37.500000 88.416 -154.7245
38.200001 88.422 -155.7097
38.700001 88.425 -156.3905
39.500000 88.432 -157.4431
40.000000 88.437 -158.1000
40.599998 88.438 -158.8970
41.200001 88.433 -159.6748
41.799999 88.425 -160.4099
42.500000 88.416 -161.2304
43.099998 88.410 -161.9201
43.700001 88.405 -162.5977
44.400002 88.402 -163.3884
45.000000 88.398 -164.0765
45.500000 88.394 -164.6403
46.200001 88.386 -165.3991
46.799999 88.380 -166.0443
47.500000 88.364 -166.7656
48.200001 88.345 -167.3440
48.700001 88.347 -167.6966
49.400002 88.371 -168.3194
50.000000 88.380 -169.0605
50.799999 88.338 -170.0533
51.500000 88.282 -170.6579
52.200001 88.248 -171.1380
53.000000 88.223 -171.7767
53.799999 88.189 -172.4611
54.500000 88.159 -173.0216
55.200001 88.132 -173.5746
56.000000 88.103 -174.2094
57.000000 88.069 -174.9792
58.000000 88.035 -175.7313
59.000000 87.998 -176.4462
60.000000 87.960 -177.1137
60.799999 87.928 -177.6125
61.500000 87.903 -178.0326
62.200001 87.879 -178.4583
63.000000 87.851 -178.9606
64.000000 87.811 -179.5853
65.000000 87.771 179.8120
66.000000 87.730 179.2135
67.000000 87.688 178.6366
68.000000 87.646 178.0868
69.000000 87.604 177.5334
70.000000 87.558 177.0140
71.000000 87.514 176.5366
72.000000 87.472 176.0620
73.000000 87.429 175.5977
74.000000 87.387 175.1498
75.000000 87.344 174.7115
76.199997 87.292 174.1956
77.500000 87.235 173.6499
78.800003 87.177 173.1265
80.000000 87.125 172.6609
81.199997 87.074 172.2009
82.500000 87.018 171.7138
83.800003 86.959 171.2596
85.000000 86.905 170.8669
86.199997 86.851 170.4861
87.500000 86.793 170.0779
88.500000 86.748 169.7667
90.000000 86.681 169.3184
91.199997 86.628 168.9688
92.500000 86.571 168.6162
93.800003 86.514 168.2703
95.000000 86.460 167.9683
96.199997 86.406 167.6777
97.500000 86.346 167.3715
98.800003 86.289 167.0892
100.000000 86.240 166.8391
101.500000 86.182 166.5107
103.000000 86.123 166.1755
104.400002 86.062 165.8734
106.000000 85.989 165.5692
107.500000 85.923 165.3093
109.000000 85.859 165.0547
110.599998 85.793 164.7848
112.000000 85.737 164.5474
113.800003 85.664 164.2658
115.000000 85.616 164.0932
117.199997 85.529 163.7935
118.000000 85.497 163.6865
120.599998 85.390 163.3656
122.000000 85.334 163.2168
124.099998 85.252 162.9907
125.000000 85.217 162.8950
126.500000 85.158 162.7480
128.000000 85.099 162.6179
131.500000 84.969 162.3390
132.000000 84.952 162.2995
134.000000 84.883 162.1423
136.000000 84.816 162.0003
138.000000 84.744 161.8757
140.000000 84.668 161.7685
143.000000 84.561 161.5918
145.000000 84.497 161.4991
147.500000 84.422 161.5139
150.000000 84.355 161.5164
152.500000 84.260 161.3461
155.000000 84.160 161.2073
157.500000 84.076 161.1163
160.000000 84.000 161.0760
162.500000 83.921 161.0560
165.000000 83.843 161.0379
167.500000 83.769 161.0322
170.000000 83.698 161.0369
172.500000 83.625 161.0633
175.000000 83.552 161.0973
177.500000 83.481 161.1290
180.000000 83.409 161.1681
182.500000 83.339 161.2191
185.000000 83.271 161.2766
187.500000 83.205 161.3392
190.000000 83.138 161.4179
192.500000 83.075 161.4896
195.000000 83.014 161.5481
197.500000 82.957 161.6159
200.000000 82.899 161.6838
203.000000 82.819 161.8107
206.000000 82.743 161.9607
209.000000 82.672 162.0963
212.000000 82.603 162.2411
214.000000 82.556 162.3400
218.000000 82.467 162.5351
220.000000 82.425 162.6364
224.000000 82.340 162.8583
227.000000 82.278 163.0343
230.000000 82.218 163.2070
233.000000 82.158 163.3839
236.000000 82.098 163.5733
240.000000 82.019 163.8366
243.000000 81.960 164.0238
247.000000 81.884 164.2135
250.000000 81.831 164.3680
254.000000 81.765 164.7092
258.000000 81.700 165.0492
262.000000 81.633 165.3293
265.000000 81.586 165.5463
269.000000 81.526 165.8490
272.000000 81.483 166.0735
276.000000 81.427 166.3672
280.000000 81.370 166.6535
285.000000 81.296 167.0069
290.000000 81.226 167.3715
295.000000 81.162 167.7144
300.000000 81.101 168.0439
304.000000 81.051 168.3453
307.000000 81.012 168.5790
311.000000 80.961 168.8724
315.000000 80.911 169.1552
320.000000 80.851 169.5116
325.000000 80.794 169.8887
330.000000 80.735 170.2664
335.000000 80.676 170.6343
340.000000 80.619 171.0060
345.000000 80.568 171.3659
350.000000 80.518 171.7347
355.000000 80.461 172.1549
360.000000 80.405 172.5745
365.000000 80.353 172.9743
370.000000 80.304 173.3677
375.000000 80.256 173.7644
382.000000 80.189 174.3282
387.000000 80.141 174.7360
395.000000 80.072 175.3960
400.000000 80.029 175.8094
406.000000 79.979 176.3008
412.000000 79.931 176.7842
418.000000 79.885 177.2695
425.000000 79.833 177.8504
431.000000 79.793 178.3620
437.000000 79.750 178.8665
444.000000 79.695 179.4453
450.000000 79.649 179.9397
455.000000 79.619 -179.6360
462.000000 79.580 -179.0404
468.000000 79.545 -178.5371
475.000000 79.504 -177.9465
482.000000 79.463 -177.3449
487.000000 79.435 -176.9162
494.000000 79.393 -176.3352
500.000000 79.357 -175.8424
508.000000 79.320 -175.1530
515.000000 79.289 -174.5480
522.000000 79.257 -173.9549
530.000000 79.222 -173.2741
538.000000 79.187 -172.5871
545.000000 79.159 -171.9821
552.000000 79.132 -171.3825
560.000000 79.102 -170.7056
570.000000 79.066 -169.8542
580.000000 79.031 -168.9976
590.000000 79.000 -168.1256
600.000000 78.970 -167.2402
608.000000 78.949 -166.5551
615.000000 78.932 -165.9571
622.000000 78.915 -165.3526
630.000000 78.897 -164.6624
640.000000 78.875 -163.7977
650.000000 78.853 -162.9359
660.000000 78.840 -162.0618
670.000000 78.828 -161.1755
680.000000 78.816 -160.2935
690.000000 78.807 -159.4079
700.000000 78.802 -158.5166
710.000000 78.797 -157.6595
720.000000 78.794 -156.8028
730.000000 78.793 -155.9291
740.000000 78.795 -155.0420
750.000000 78.799 -154.1529
762.000000 78.807 -153.1153
775.000000 78.821 -151.9894
788.000000 78.836 -150.8507
800.000000 78.854 -149.7965
812.000000 78.877 -148.7605
825.000000 78.907 -147.6492
838.000000 78.943 -146.5374
850.000000 78.979 -145.5202
862.000000 79.020 -144.5076
875.000000 79.068 -143.4228
885.000000 79.109 -142.6069
900.000000 79.174 -141.4159
912.000000 79.231 -140.4701
925.000000 79.297 -139.4633
938.000000 79.367 -138.4941
950.000000 79.435 -137.6274
962.000000 79.503 -136.7784
975.000000 79.579 -135.8855
988.000000 79.658 -135.0309
1000.000000 79.733 -134.2757
1015.000000 79.828 -133.3699
1030.000000 79.923 -132.4988
1044.000000 80.012 -131.7162
1060.000000 80.113 -130.8749
1075.000000 80.208 -130.1340
1090.000000 80.302 -129.4146
1106.000000 80.399 -128.6858
1120.000000 80.482 -128.0815
1138.000000 80.586 -127.3343
1150.000000 80.654 -126.8542
1172.000000 80.775 -125.9966
1180.000000 80.818 -125.6946
1206.000000 80.954 -124.7462
1220.000000 81.025 -124.2392
1241.000000 81.128 -123.5018
1250.000000 81.171 -123.1902
1265.000000 81.241 -122.6764
1280.000000 81.310 -122.1688
1315.000000 81.465 -121.0291
1320.000000 81.487 -120.8697
1340.000000 81.575 -120.2348
1360.000000 81.661 -119.6110
1380.000000 81.743 -119.0023
1400.000000 81.825 -118.4066
1430.000000 81.941 -117.5463
1450.000000 82.014 -116.9845
1475.000000 82.102 -116.2890
1500.000000 82.188 -115.5903
1525.000000 82.272 -114.8994
1550.000000 82.351 -114.2071
1575.000000 82.427 -113.5139
1600.000000 82.501 -112.8114
1625.000000 82.573 -112.0968
1650.000000 82.645 -111.3783
1675.000000 82.716 -110.6508
1700.000000 82.788 -109.9173
1725.000000 82.860 -109.1810
1750.000000 82.932 -108.4444
1775.000000 83.004 -107.6968
1800.000000 83.077 -106.9524
1825.000000 83.151 -106.2204
1850.000000 83.227 -105.4912
1875.000000 83.302 -104.7564
1900.000000 83.378 -104.0242
1925.000000 83.456 -103.2997
1950.000000 83.535 -102.5855
1975.000000 83.615 -101.8814
2000.000000 83.695 -101.1868
2030.000000 83.795 -100.3693
2060.000000 83.895 -99.5670
2090.000000 83.995 -98.7783
2120.000000 84.097 -98.0080
2140.000000 84.164 -97.5030
2180.000000 84.302 -96.5200
2200.000000 84.371 -96.0424
2240.000000 84.510 -95.1072
2270.000000 84.615 -94.4315
2300.000000 84.721 -93.7787
2330.000000 84.826 -93.1492
2360.000000 84.931 -92.5439
2400.000000 85.072 -91.7742
2430.000000 85.177 -91.2266
2470.000000 85.316 -90.5341
2500.000000 85.420 -90.0413
2540.000000 85.559 -89.4228
2580.000000 85.694 -88.8449
2620.000000 85.827 -88.3090
2650.000000 85.925 -87.9361
2690.000000 86.053 -87.4792
2720.000000 86.148 -87.1661
2760.000000 86.270 -86.7888
2800.000000 86.388 -86.4547
2850.000000 86.529 -86.0921
2900.000000 86.661 -85.7946
2950.000000 86.786 -85.5573
3000.000000 86.900 -85.3772
3040.000000 86.984 -85.2687
3070.000000 87.042 -85.2063
3110.000000 87.113 -85.1478
3150.000000 87.176 -85.1155
3200.000000 87.244 -85.1066
3250.000000 87.300 -85.1221
3300.000000 87.342 -85.1571
3350.000000 87.371 -85.2031
3400.000000 87.386 -85.2556
3450.000000 87.388 -85.3030
3500.000000 87.376 -85.3422
3550.000000 87.352 -85.3706
3600.000000 87.314 -85.3763
3650.000000 87.264 -85.3530
3700.000000 87.203 -85.2988
3750.000000 87.131 -85.2032
3820.000000 87.013 -84.9972
3870.000000 86.917 -84.7955
3950.000000 86.746 -84.3655
4000.000000 86.630 -84.0223
4060.000000 86.481 -83.5344
4120.000000 86.325 -82.9644
4180.000000 86.161 -82.3071
4250.000000 85.963 -81.4366
4310.000000 85.788 -80.6014
4370.000000 85.609 -79.6806
4440.000000 85.398 -78.5014
4500.000000 85.215 -77.4003
4550.000000 85.062 -76.4154
4620.000000 84.848 -74.9434
4680.000000 84.666 -73.5984
4750.000000 84.455 -71.9258
4820.000000 84.250 -70.1433
4870.000000 84.108 -68.8056
4940.000000 83.917 -66.8523
5000.000000 83.762 -65.1187
5080.000000 83.568 -62.7526
5150.000000 83.410 -60.6516
5220.000000 83.258 -58.5345
5300.000000 83.088 -56.0847
5380.000000 82.921 -53.5862
5450.000000 82.779 -51.3519
5520.000000 82.642 -49.0639
5600.000000 82.493 -46.3792
5700.000000 82.320 -42.9253
5800.000000 82.167 -39.3832
5900.000000 82.033 -35.7603
6000.000000 81.922 -32.0744
6080.000000 81.850 -29.0935
6150.000000 81.800 -26.4695
6220.000000 81.761 -23.8359
6300.000000 81.733 -20.8216
6400.000000 81.723 -17.0698
6500.000000 81.740 -13.3430
6600.000000 81.785 -9.6522
6700.000000 81.856 -6.0294
6800.000000 81.954 -2.4915
6900.000000 82.078 0.9444
7000.000000 82.231 4.2544
7100.000000 82.411 7.4064
7200.000000 82.618 10.3572
7300.000000 82.846 13.0676
7400.000000 83.092 15.5059
7500.000000 83.351 17.6481
7620.000000 83.671 19.7801
7750.000000 84.016 21.4805
7880.000000 84.334 22.5017
8000.000000 84.580 22.8384
8120.000000 84.756 22.6402
8250.000000 84.839 21.9688
8380.000000 84.791 21.0561
8500.000000 84.625 20.2671
8620.000000 84.356 19.7749
8750.000000 83.977 19.7529
8850.000000 83.647 20.1244
9000.000000 83.117 21.2627
9120.000000 82.675 22.6472
9250.000000 82.190 24.6153
9380.000000 81.712 27.0341
9500.000000 81.291 29.6077
9620.000000 80.896 32.4656
9750.000000 80.506 35.8091
9880.000000 80.159 39.3251
10000.000000 79.878 42.6611
10150.000000 79.575 46.8754
10300.000000 79.320 51.0437
10440.000000 79.112 54.8194
10600.000000 78.888 59.0069
10750.000000 78.667 62.9182
10900.000000 78.419 67.0928
11060.000000 78.153 72.3740
11200.000000 78.017 78.1235
11380.000000 78.279 86.6039
11500.000000 78.847 91.6598
11720.000000 80.316 95.8108
11800.000000 80.808 95.3320
12060.000000 81.751 88.9504
12200.000000 81.813 84.3039
12410.000000 81.423 77.8621
12500.000000 81.120 75.5771
12650.000000 80.485 72.5656
12800.000000 79.737 70.5816
13150.000000 77.807 69.5815
13200.000000 77.529 69.7918
13400.000000 76.442 71.3280
13600.000000 75.427 73.7316
13800.000000 74.502 76.7096
14000.000000 73.676 79.9979
14300.000000 72.604 84.9719
14500.000000 71.975 88.1648
14750.000000 71.260 91.9746
15000.000000 70.620 95.4876
15250.000000 70.054 98.5332
15500.000000 69.548 101.0041
15750.000000 69.073 102.8237
16000.000000 68.600 103.9811
16250.000000 68.110 104.7570
16500.000000 67.648 105.4182
16750.000000 67.299 105.7098
17000.000000 67.076 104.9595
17250.000000 66.932 102.6726
17500.000000 66.806 98.6464
17750.000000 66.652 92.8108
18000.000000 66.445 85.1113
18250.000000 66.156 75.2661
18500.000000 65.714 63.0115
18750.000000 65.015 48.2842
19000.000000 63.960 31.4404
19250.000000 62.471 13.2085
19500.000000 60.510 -5.2709
19750.000000 58.196 -21.4989
