* Measurement data measured by REW V5.20.9
* Source: Headset (USB-C to 3.5mm Headphone Jack Adapter), MICROPHONE (Master Volume), L, volume: 0.260. Timing signal peak level -33.5 dBFS, measurement signal peak level -29.1 dBFS
* Format: 256k Log Swept Sine, 1 sweep at -12.0 dBFS using an acoustic timing reference
* Dated: 08/08/2024 6:48:12 PM
* REW Settings:
*  C-weighting compensation: Off
*  Target level: 75.0 dB
* Note: ; Delay -0.0257 ms (-8.8 mm, -0.35 in) using estimated IR delay relative to Acoustic reference on SPEAKER R with no timing offset
* Measurement: EW300 DSP Pink R
* Smoothing: 1/24 octave
* Frequency Step: 1/48 octave
* Start Frequency: 1.000 Hz
*
* Freq(Hz) SPL(dB) Phase(degrees)
1.000000 43.500 58.2340
1.015000 43.773 56.8279
1.030000 44.042 55.4833
1.044000 44.290 54.2892
1.060000 44.568 53.0027
1.075000 44.824 51.8785
1.090000 45.075 50.8396
1.106000 45.337 49.8329
1.120000 45.564 49.0427
1.138000 45.852 48.1438
1.150000 46.043 47.6124
1.172000 46.389 46.7659
1.180000 46.514 46.4958
1.206000 46.915 45.7397
1.220000 47.129 45.4008
1.241000 47.447 44.9669
1.250000 47.581 44.8043
1.265000 47.805 44.5591
1.280000 48.026 44.3401
1.315000 48.536 43.8930
1.320000 48.608 43.8328
1.340000 48.894 43.5906
1.360000 49.177 43.3346
1.380000 49.458 43.0487
1.400000 49.735 42.7167
1.430000 50.145 42.0969
1.450000 50.415 41.5791
1.475000 50.749 40.7946
1.500000 51.078 39.9203
1.525000 51.401 38.9833
1.550000 51.718 37.9946
1.575000 52.031 36.9648
1.600000 52.339 35.9048
1.625000 52.642 34.8253
1.650000 52.941 33.7372
1.675000 53.235 32.6512
1.700000 53.526 31.5781
1.725000 53.812 30.5287
1.750000 54.095 29.5139
1.775000 54.374 28.5444
1.800000 54.650 27.6309
1.825000 54.923 26.7844
1.850000 55.193 26.0077
1.875000 55.458 25.2842
1.900000 55.719 24.6072
1.925000 55.976 23.9707
1.950000 56.228 23.3686
1.975000 56.477 22.7949
2.000000 56.722 22.2435
2.030000 57.012 21.6027
2.060000 57.297 20.9748
2.090000 57.577 20.3493
2.120000 57.854 19.7159
2.140000 58.036 19.2840
2.180000 58.396 18.3831
2.200000 58.573 17.9081
2.240000 58.922 16.9334
2.270000 59.178 16.1924
2.300000 59.430 15.4453
2.330000 59.677 14.6939
2.360000 59.920 13.9405
2.400000 60.238 12.9361
2.430000 60.472 12.1857
2.470000 60.778 11.1929
2.500000 61.005 10.4567
2.540000 61.302 9.4903
2.580000 61.595 8.5438
2.620000 61.881 7.6045
2.650000 62.091 6.9037
2.690000 62.365 5.9762
2.720000 62.568 5.2871
2.760000 62.832 4.3788
2.800000 63.092 3.4848
2.850000 63.410 2.3910
2.900000 63.721 1.3280
2.950000 64.027 0.3016
3.000000 64.324 -0.6786
3.040000 64.556 -1.4346
3.070000 64.728 -1.9890
3.110000 64.952 -2.7158
3.150000 65.172 -3.4338
3.200000 65.443 -4.3276
3.250000 65.708 -5.2276
3.300000 65.969 -6.1451
3.350000 66.224 -7.0853
3.400000 66.473 -8.0398
3.450000 66.717 -8.9984
3.500000 66.955 -9.9509
3.550000 67.189 -10.8871
3.600000 67.419 -11.7968
3.650000 67.645 -12.6699
3.700000 67.868 -13.4975
3.750000 68.087 -14.2838
3.820000 68.385 -15.3342
3.870000 68.593 -16.0622
3.950000 68.920 -17.2162
4.000000 69.121 -17.9465
4.060000 69.358 -18.8456
4.120000 69.590 -19.7598
4.180000 69.817 -20.6787
4.250000 70.077 -21.7448
4.310000 70.296 -22.6432
4.370000 70.511 -23.5182
4.440000 70.757 -24.4993
4.500000 70.965 -25.3097
4.550000 71.135 -25.9694
4.620000 71.368 -26.8780
4.680000 71.565 -27.6512
4.750000 71.790 -28.5575
4.820000 72.011 -29.4736
4.870000 72.166 -30.1289
4.940000 72.380 -31.0439
5.000000 72.559 -31.8228
5.080000 72.794 -32.8481
5.150000 72.995 -33.7282
5.220000 73.192 -34.5936
5.300000 73.412 -35.5680
5.380000 73.627 -36.5290
5.450000 73.811 -37.3609
5.520000 73.992 -38.1860
5.600000 74.194 -39.1193
5.700000 74.440 -40.2704
5.800000 74.680 -41.4035
5.900000 74.914 -42.5179
6.000000 75.141 -43.6145
6.080000 75.318 -44.4784
6.150000 75.471 -45.2240
6.220000 75.621 -45.9595
6.300000 75.790 -46.7861
6.400000 75.997 -47.7993
6.500000 76.199 -48.7954
6.600000 76.397 -49.7803
6.700000 76.592 -50.7540
6.800000 76.782 -51.7147
6.900000 76.969 -52.6630
7.000000 77.153 -53.5992
7.100000 77.333 -54.5209
7.200000 77.510 -55.4313
7.300000 77.684 -56.3349
7.400000 77.854 -57.2343
7.500000 78.021 -58.1272
7.620000 78.217 -59.1896
7.750000 78.424 -60.3284
7.880000 78.625 -61.4550
8.000000 78.806 -62.4840
8.120000 78.982 -63.5029
8.250000 79.167 -64.5960
8.380000 79.347 -65.6746
8.500000 79.507 -66.6552
8.620000 79.664 -67.6229
8.750000 79.828 -68.6534
8.850000 79.951 -69.4318
9.000000 80.130 -70.5779
9.120000 80.269 -71.4743
9.250000 80.417 -72.4233
9.380000 80.560 -73.3502
9.500000 80.690 -74.1864
9.620000 80.818 -75.0029
9.750000 80.954 -75.8656
9.880000 81.088 -76.7116
10.000000 81.211 -77.4776
10.150000 81.363 -78.4159
10.300000 81.514 -79.3452
10.440000 81.654 -80.2020
10.600000 81.812 -81.1784
10.750000 81.958 -82.0994
10.900000 82.101 -83.0234
11.060000 82.250 -84.0176
11.200000 82.376 -84.8959
11.380000 82.531 -86.0247
11.500000 82.629 -86.7790
11.720000 82.798 -88.1442
11.800000 82.855 -88.6292
12.060000 83.031 -90.1609
12.200000 83.119 -90.9367
12.410000 83.246 -92.0383
12.500000 83.300 -92.4845
12.650000 83.389 -93.1905
12.800000 83.479 -93.8654
13.150000 83.704 -95.3486
13.200000 83.737 -95.5608
13.400000 83.877 -96.4071
13.600000 84.020 -97.2942
13.800000 84.165 -98.2396
14.000000 84.305 -99.2500
14.300000 84.500 -100.8794
14.500000 84.612 -102.0156
14.750000 84.733 -103.4286
15.000000 84.831 -104.7989
15.250000 84.911 -106.0635
15.500000 84.984 -107.2103
15.750000 85.054 -108.2405
16.000000 85.130 -109.1791
16.250000 85.214 -110.0774
16.500000 85.305 -110.9636
16.750000 85.401 -111.8742
17.000000 85.496 -112.8154
17.250000 85.587 -113.7799
17.500000 85.672 -114.7540
17.750000 85.751 -115.7133
18.000000 85.826 -116.6508
18.250000 85.899 -117.5594
18.500000 85.971 -118.4470
18.750000 86.042 -119.3215
19.000000 86.113 -120.1904
19.250000 86.183 -121.0587
19.500000 86.249 -121.9221
19.750000 86.313 -122.7774
20.000000 86.373 -123.6160
20.299999 86.443 -124.5989
20.600000 86.511 -125.5588
20.900000 86.577 -126.5036
21.200001 86.641 -127.4416
21.400000 86.681 -128.0631
21.799999 86.754 -129.2843
22.000000 86.787 -129.8761
22.400000 86.849 -131.0061
22.700001 86.895 -131.8070
23.000000 86.943 -132.5832
23.299999 86.993 -133.3589
23.600000 87.044 -134.1524
24.000000 87.107 -135.2502
24.299999 87.146 -136.0902
24.700001 87.184 -137.1898
25.000000 87.203 -137.9638
25.400000 87.225 -138.8984
25.799999 87.253 -139.7292
26.200001 87.293 -140.5086
26.500000 87.333 -141.1051
26.900000 87.394 -141.9645
27.200001 87.440 -142.6742
27.600000 87.494 -143.6986
28.000000 87.532 -144.7652
28.500000 87.557 -146.0567
29.000000 87.566 -147.2092
29.500000 87.576 -148.2091
30.000000 87.598 -149.1237
30.400000 87.624 -149.8531
30.700001 87.645 -150.4173
31.100000 87.671 -151.1929
31.500000 87.692 -151.9780
32.000000 87.710 -152.9371
32.500000 87.722 -153.8489
33.000000 87.733 -154.7210
33.500000 87.745 -155.5741
34.000000 87.755 -156.4221
34.500000 87.766 -157.2725
35.000000 87.774 -158.1345
35.500000 87.778 -159.0125
36.000000 87.776 -159.8875
36.500000 87.766 -160.7218
37.000000 87.755 -161.4864
37.500000 87.750 -162.1890
38.200001 87.758 -163.1428
38.700001 87.771 -163.8562
39.500000 87.787 -165.0921
40.000000 87.783 -165.8805
40.599998 87.760 -166.7432
41.200001 87.733 -167.4422
41.799999 87.718 -168.0276
42.500000 87.720 -168.7342
43.099998 87.723 -169.4386
43.700001 87.718 -170.2119
44.400002 87.696 -171.1512
45.000000 87.665 -171.9509
45.500000 87.633 -172.5886
46.200001 87.583 -173.4101
46.799999 87.543 -174.0161
47.500000 87.519 -174.5996
48.200001 87.538 -175.2513
48.700001 87.562 -175.9232
49.400002 87.556 -177.0977
50.000000 87.502 -177.9825
50.799999 87.424 -178.7082
51.500000 87.393 -179.2323
52.200001 87.360 -179.8711
53.000000 87.297 179.4944
53.799999 87.244 179.0248
54.500000 87.209 178.5557
55.200001 87.168 178.0290
56.000000 87.114 177.4524
57.000000 87.051 176.7226
58.000000 86.984 176.0161
59.000000 86.931 175.3552
60.000000 86.883 174.6307
60.799999 86.835 174.0617
61.500000 86.792 173.6097
62.200001 86.751 173.1755
63.000000 86.704 172.6728
64.000000 86.641 172.0494
65.000000 86.579 171.4425
66.000000 86.519 170.8035
67.000000 86.452 170.1420
68.000000 86.379 169.5742
69.000000 86.318 169.0796
70.000000 86.264 168.5471
71.000000 86.200 168.0130
72.000000 86.129 167.5558
73.000000 86.062 167.1688
74.000000 86.003 166.7863
75.000000 85.945 166.3731
76.199997 85.868 165.8895
77.500000 85.783 165.4440
78.800003 85.704 165.0498
80.000000 85.632 164.6770
81.199997 85.555 164.2868
82.500000 85.466 163.8853
83.800003 85.380 163.5169
85.000000 85.307 163.1848
86.199997 85.238 162.8631
87.500000 85.166 162.5307
88.500000 85.109 162.2991
90.000000 85.022 161.9999
91.199997 84.953 161.7819
92.500000 84.876 161.5487
93.800003 84.800 161.3204
95.000000 84.734 161.1112
96.199997 84.672 160.8933
97.500000 84.607 160.6530
98.800003 84.543 160.4160
100.000000 84.481 160.2164
101.500000 84.402 160.0249
103.000000 84.327 159.8620
104.400002 84.257 159.7108
106.000000 84.177 159.5551
107.500000 84.105 159.4149
109.000000 84.035 159.2752
110.599998 83.962 159.1359
112.000000 83.901 159.0137
113.800003 83.824 158.8593
115.000000 83.772 158.7628
117.199997 83.681 158.6010
118.000000 83.648 158.5456
120.599998 83.542 158.3918
122.000000 83.487 158.3192
124.099998 83.405 158.2188
125.000000 83.369 158.1818
126.500000 83.309 158.1322
128.000000 83.249 158.0842
131.500000 83.116 157.9410
132.000000 83.098 157.9164
134.000000 83.028 157.8217
136.000000 82.954 157.7663
138.000000 82.879 157.7479
140.000000 82.808 157.7064
143.000000 82.705 157.6364
145.000000 82.634 157.6578
147.500000 82.530 157.7850
150.000000 82.439 157.9564
152.500000 82.374 157.8247
155.000000 82.299 157.6674
157.500000 82.223 157.6635
160.000000 82.145 157.7052
162.500000 82.067 157.7411
165.000000 81.993 157.8281
167.500000 81.925 157.9347
170.000000 81.852 157.9858
172.500000 81.776 158.0367
175.000000 81.704 158.1125
177.500000 81.634 158.2105
180.000000 81.565 158.3252
182.500000 81.498 158.4556
185.000000 81.431 158.5864
187.500000 81.365 158.7170
190.000000 81.301 158.8638
192.500000 81.239 159.0072
195.000000 81.180 159.1122
197.500000 81.127 159.1966
200.000000 81.076 159.3118
203.000000 81.010 159.5464
206.000000 80.942 159.8108
209.000000 80.875 160.0440
212.000000 80.811 160.2716
214.000000 80.770 160.4277
218.000000 80.693 160.7242
220.000000 80.655 160.8665
224.000000 80.584 161.1622
227.000000 80.532 161.4136
230.000000 80.481 161.6946
233.000000 80.433 161.9812
236.000000 80.390 162.2340
240.000000 80.328 162.5269
243.000000 80.279 162.7451
247.000000 80.217 163.0981
250.000000 80.180 163.3757
254.000000 80.133 163.6300
258.000000 80.082 163.8995
262.000000 80.037 164.2453
265.000000 80.008 164.5386
269.000000 79.972 164.8979
272.000000 79.944 165.1085
276.000000 79.909 165.3533
280.000000 79.874 165.6256
285.000000 79.832 166.0099
290.000000 79.794 166.3588
295.000000 79.756 166.6615
300.000000 79.720 166.9601
304.000000 79.686 167.2021
307.000000 79.659 167.3874
311.000000 79.625 167.6328
315.000000 79.593 167.8719
320.000000 79.553 168.1745
325.000000 79.516 168.4902
330.000000 79.480 168.7970
335.000000 79.444 169.0986
340.000000 79.409 169.3974
345.000000 79.378 169.7059
350.000000 79.353 170.0237
355.000000 79.317 170.3378
360.000000 79.281 170.6352
365.000000 79.252 170.9265
370.000000 79.225 171.2286
375.000000 79.199 171.5307
382.000000 79.164 171.9479
387.000000 79.138 172.2485
395.000000 79.098 172.7217
400.000000 79.077 173.0075
406.000000 79.049 173.3645
412.000000 79.023 173.7311
418.000000 78.997 174.0984
425.000000 78.966 174.4916
431.000000 78.941 174.8113
437.000000 78.917 175.1334
444.000000 78.895 175.5271
450.000000 78.875 175.8633
455.000000 78.853 176.1181
462.000000 78.823 176.4933
468.000000 78.803 176.8305
475.000000 78.781 177.2182
482.000000 78.760 177.6071
487.000000 78.744 177.8899
494.000000 78.725 178.2703
500.000000 78.709 178.5811
508.000000 78.683 179.0165
515.000000 78.660 179.3999
522.000000 78.640 179.7826
530.000000 78.620 -179.7723
538.000000 78.600 -179.3265
545.000000 78.581 -178.9343
552.000000 78.566 -178.5453
560.000000 78.551 -178.1154
570.000000 78.531 -177.5807
580.000000 78.512 -177.0417
590.000000 78.497 -176.4994
600.000000 78.484 -175.9439
608.000000 78.471 -175.4716
615.000000 78.461 -175.0622
622.000000 78.451 -174.6606
630.000000 78.440 -174.2077
640.000000 78.434 -173.6664
650.000000 78.430 -173.1311
660.000000 78.417 -172.5566
670.000000 78.408 -171.9773
680.000000 78.404 -171.4071
690.000000 78.401 -170.8441
700.000000 78.400 -170.2939
710.000000 78.407 -169.7413
720.000000 78.411 -169.1301
730.000000 78.410 -168.5086
740.000000 78.415 -167.9138
750.000000 78.425 -167.3129
762.000000 78.436 -166.5797
775.000000 78.459 -165.7639
788.000000 78.482 -164.9984
800.000000 78.497 -164.2557
812.000000 78.525 -163.4952
825.000000 78.568 -162.6811
838.000000 78.619 -161.9676
850.000000 78.662 -161.3500
862.000000 78.697 -160.6510
875.000000 78.741 -159.7963
885.000000 78.791 -159.1925
900.000000 78.868 -158.4319
912.000000 78.922 -157.9357
925.000000 79.005 -157.4226
938.000000 79.099 -156.8643
950.000000 79.175 -156.2908
962.000000 79.246 -155.7446
975.000000 79.325 -155.2576
988.000000 79.409 -154.8089
1000.000000 79.487 -154.3734
1015.000000 79.582 -153.8595
1030.000000 79.681 -153.4412
1044.000000 79.772 -153.0792
1060.000000 79.869 -152.6792
1075.000000 79.966 -152.3469
1090.000000 80.066 -152.0580
1106.000000 80.166 -151.7543
1120.000000 80.251 -151.5338
1138.000000 80.357 -151.3256
1150.000000 80.425 -151.1973
1172.000000 80.546 -150.9763
1180.000000 80.590 -150.9053
1206.000000 80.723 -150.6979
1220.000000 80.790 -150.6007
1241.000000 80.885 -150.4716
1250.000000 80.924 -150.4224
1265.000000 80.990 -150.3416
1280.000000 81.053 -150.2636
1315.000000 81.189 -150.1067
1320.000000 81.207 -150.0818
1340.000000 81.280 -149.9710
1360.000000 81.354 -149.8511
1380.000000 81.424 -149.7323
1400.000000 81.488 -149.6057
1430.000000 81.586 -149.4227
1450.000000 81.651 -149.2986
1475.000000 81.727 -149.1366
1500.000000 81.803 -148.9845
1525.000000 81.877 -148.8548
1550.000000 81.948 -148.7323
1575.000000 82.022 -148.6147
1600.000000 82.097 -148.4185
1625.000000 82.171 -148.1887
1650.000000 82.246 -147.9987
1675.000000 82.318 -147.8462
1700.000000 82.393 -147.7116
1725.000000 82.468 -147.5635
1750.000000 82.545 -147.4157
1775.000000 82.622 -147.2730
1800.000000 82.699 -147.1386
1825.000000 82.777 -147.0114
1850.000000 82.854 -146.8823
1875.000000 82.934 -146.7441
1900.000000 83.016 -146.5945
1925.000000 83.099 -146.4513
1950.000000 83.180 -146.3348
1975.000000 83.263 -146.2452
2000.000000 83.347 -146.1711
2030.000000 83.449 -146.0999
2060.000000 83.553 -146.0427
2090.000000 83.656 -145.9917
2120.000000 83.761 -145.9316
2140.000000 83.833 -145.8910
2180.000000 83.978 -145.8444
2200.000000 84.050 -145.8512
2240.000000 84.194 -145.9222
2270.000000 84.303 -146.0057
2300.000000 84.413 -146.1117
2330.000000 84.524 -146.2434
2360.000000 84.635 -146.4044
2400.000000 84.783 -146.6583
2430.000000 84.894 -146.8757
2470.000000 85.042 -147.2103
2500.000000 85.152 -147.4985
2540.000000 85.297 -147.9267
2580.000000 85.440 -148.3742
2620.000000 85.585 -148.8353
2650.000000 85.692 -149.2136
2690.000000 85.828 -149.8033
2720.000000 85.927 -150.3090
2760.000000 86.056 -151.0311
2800.000000 86.180 -151.7701
2850.000000 86.332 -152.7207
2900.000000 86.470 -153.7523
2950.000000 86.599 -154.8599
3000.000000 86.717 -156.0534
3040.000000 86.799 -157.1064
3070.000000 86.854 -157.9407
3110.000000 86.921 -159.0851
3150.000000 86.977 -160.2604
3200.000000 87.031 -161.7705
3250.000000 87.069 -163.3163
3300.000000 87.088 -164.8865
3350.000000 87.090 -166.4653
3400.000000 87.074 -168.0429
3450.000000 87.040 -169.6108
3500.000000 86.989 -171.1527
3550.000000 86.920 -172.6611
3600.000000 86.835 -174.1263
3650.000000 86.735 -175.5352
3700.000000 86.620 -176.8496
3750.000000 86.496 -178.0486
3820.000000 86.301 -179.6266
3870.000000 86.149 179.2759
3950.000000 85.888 177.6370
4000.000000 85.717 176.7056
4060.000000 85.502 175.6906
4120.000000 85.280 174.7982
4180.000000 85.053 174.0682
4250.000000 84.789 173.4272
4310.000000 84.557 172.9843
4370.000000 84.323 172.6368
4440.000000 84.054 172.3726
4500.000000 83.820 172.2256
4550.000000 83.628 172.1725
4620.000000 83.365 172.2035
4680.000000 83.140 172.2627
4750.000000 82.881 172.3607
4820.000000 82.630 172.5295
4870.000000 82.456 172.6986
4940.000000 82.218 173.0032
5000.000000 82.020 173.3143
5080.000000 81.765 173.7834
5150.000000 81.551 174.2482
5220.000000 81.343 174.7606
5300.000000 81.111 175.3987
5380.000000 80.888 176.0923
5450.000000 80.697 176.7556
5520.000000 80.513 177.4671
5600.000000 80.313 178.3265
5700.000000 80.076 179.4681
5800.000000 79.853 -179.3111
5900.000000 79.644 -178.0072
6000.000000 79.453 -176.5569
6080.000000 79.316 -175.2661
6150.000000 79.207 -174.1346
6220.000000 79.106 -173.0612
6300.000000 79.003 -171.8782
6400.000000 78.890 -170.3888
6500.000000 78.797 -168.8783
6600.000000 78.729 -167.3586
6700.000000 78.682 -165.8162
6800.000000 78.659 -164.1829
6900.000000 78.660 -162.5174
7000.000000 78.680 -160.9313
7100.000000 78.731 -159.3746
7200.000000 78.812 -157.9008
7300.000000 78.918 -156.6560
7400.000000 79.052 -155.6141
7500.000000 79.217 -154.7301
7620.000000 79.467 -153.9238
7750.000000 79.812 -153.5484
7880.000000 80.229 -154.0015
8000.000000 80.640 -155.5123
8120.000000 81.003 -158.3334
8250.000000 81.231 -162.7189
8380.000000 81.184 -167.7930
8500.000000 80.862 -172.3256
8620.000000 80.321 -175.9425
8750.000000 79.595 -178.3361
8850.000000 79.000 -179.1837
9000.000000 78.131 -179.0527
9120.000000 77.503 -177.9770
9250.000000 76.903 -176.2260
9380.000000 76.397 -173.9918
9500.000000 76.014 -171.6087
9620.000000 75.695 -169.1332
9750.000000 75.403 -166.5393
9880.000000 75.157 -164.0449
10000.000000 74.963 -161.7434
10150.000000 74.763 -158.7852
10300.000000 74.608 -155.6258
10440.000000 74.514 -152.3807
10600.000000 74.501 -148.1537
10750.000000 74.651 -143.6330
10900.000000 75.062 -138.8631
11060.000000 75.848 -134.3967
11200.000000 76.768 -131.9030
11380.000000 78.093 -131.2435
11500.000000 78.991 -132.3613
11720.000000 80.589 -137.3335
11800.000000 81.140 -140.0380
12060.000000 82.672 -152.4393
12200.000000 83.199 -161.5609
12410.000000 83.416 -177.2597
12500.000000 83.285 175.9087
12650.000000 82.798 165.1805
12800.000000 82.048 155.7784
13150.000000 79.769 139.4792
13200.000000 79.419 137.7045
13400.000000 78.015 131.6779
13600.000000 76.632 127.0775
13800.000000 75.289 123.6045
14000.000000 74.001 121.0743
14300.000000 72.211 118.7689
14500.000000 71.136 117.9800
14750.000000 69.936 117.5368
15000.000000 68.915 117.4739
15250.000000 68.084 117.5688
15500.000000 67.458 117.4179
15750.000000 67.032 116.5990
16000.000000 66.782 114.7649
16250.000000 66.665 111.5744
16500.000000 66.626 106.8494
16750.000000 66.603 100.5769
17000.000000 66.535 92.8551
17250.000000 66.407 83.9637
17500.000000 66.257 73.9227
17750.000000 66.099 62.4622
18000.000000 65.901 49.3083
18250.000000 65.627 34.3360
18500.000000 65.250 17.3801
18750.000000 64.721 -1.8178
19000.000000 63.973 -23.4907
19250.000000 62.906 -47.6552
19500.000000 61.408 -73.5327
19750.000000 59.508 -97.7634
