* Measurement data measured by REW V5.20.9
* Source: Input device not selected, no input selected, L, volume: no control. Timing signal peak level -31.1 dBFS, measurement signal peak level -27.4 dBFS
* Format: 256k Log Swept Sine, 1 sweep at -12.0 dBFS using an acoustic timing reference
* Dated: 20/05/2024 9:09:00 PM
* REW Settings:
*  C-weighting compensation: Off
*  Target level: 75.0 dB
* Note: ; Delay 0.0331 ms (11 mm, 0.45 in) using estimated IR delay relative to Acoustic reference on  L with no timing offset
* Measurement: Explorer L
* Smoothing: 1/24 octave
* Frequency Step: 1/48 octave
* Start Frequency: 1.000 Hz
*
* Freq(Hz) SPL(dB) Phase(degrees)
1.000000 45.389 108.1392
1.015000 45.639 106.7491
1.030000 45.886 105.3949
1.044000 46.115 104.1676
1.060000 46.373 102.8133
1.075000 46.611 101.5956
1.090000 46.845 100.4330
1.106000 47.091 99.2570
1.120000 47.304 98.2720
1.138000 47.578 97.0593
1.150000 47.760 96.2821
1.172000 48.091 94.9172
1.180000 48.211 94.4386
1.206000 48.599 92.9422
1.220000 48.807 92.1700
1.241000 49.117 91.0497
1.250000 49.249 90.5818
1.265000 49.468 89.8163
1.280000 49.686 89.0660
1.315000 50.190 87.3595
1.320000 50.261 87.1193
1.340000 50.545 86.1629
1.360000 50.827 85.2092
1.380000 51.106 84.2514
1.400000 51.382 83.2831
1.430000 51.792 81.7965
1.450000 52.061 80.7730
1.475000 52.394 79.4493
1.500000 52.723 78.1025
1.525000 53.047 76.7436
1.550000 53.368 75.3769
1.575000 53.685 74.0065
1.600000 53.998 72.6367
1.625000 54.307 71.2718
1.650000 54.612 69.9159
1.675000 54.913 68.5733
1.700000 55.211 67.2483
1.725000 55.505 65.9450
1.750000 55.796 64.6677
1.775000 56.083 63.4206
1.800000 56.367 62.2079
1.825000 56.647 61.0340
1.850000 56.923 59.9011
1.875000 57.195 58.8055
1.900000 57.464 57.7437
1.925000 57.728 56.7123
1.950000 57.988 55.7079
1.975000 58.245 54.7273
2.000000 58.498 53.7669
2.030000 58.798 52.6367
2.060000 59.093 51.5251
2.090000 59.383 50.4263
2.120000 59.670 49.3346
2.140000 59.859 48.6078
2.180000 60.232 47.1491
2.200000 60.417 46.4138
2.240000 60.779 44.9487
2.270000 61.046 43.8611
2.300000 61.308 42.7832
2.330000 61.565 41.7153
2.360000 61.819 40.6572
2.400000 62.151 39.2621
2.430000 62.396 38.2277
2.470000 62.717 36.8644
2.500000 62.954 35.8541
2.540000 63.266 34.5232
2.580000 63.574 33.2113
2.620000 63.875 31.9180
2.650000 64.096 30.9601
2.690000 64.386 29.6992
2.720000 64.599 28.7654
2.760000 64.879 27.5364
2.800000 65.154 26.3255
2.850000 65.491 24.8370
2.900000 65.822 23.3763
2.950000 66.147 21.9446
3.000000 66.464 20.5517
3.040000 66.712 19.4630
3.070000 66.895 18.6592
3.110000 67.135 17.6014
3.150000 67.370 16.5563
3.200000 67.660 15.2626
3.250000 67.944 13.9765
3.300000 68.223 12.6910
3.350000 68.496 11.4057
3.400000 68.763 10.1263
3.450000 69.024 8.8566
3.500000 69.279 7.6006
3.550000 69.529 6.3621
3.600000 69.775 5.1451
3.650000 70.017 3.9535
3.700000 70.253 2.7911
3.750000 70.485 1.6574
3.820000 70.801 0.1094
3.870000 71.022 -0.9748
3.950000 71.365 -2.6857
4.000000 71.575 -3.7475
4.060000 71.822 -5.0207
4.120000 72.063 -6.2883
4.180000 72.298 -7.5452
4.250000 72.565 -8.9921
4.310000 72.788 -10.2106
4.370000 73.007 -11.4043
4.440000 73.256 -12.7609
4.500000 73.464 -13.8949
4.550000 73.634 -14.8223
4.620000 73.866 -16.0976
4.680000 74.060 -17.1728
4.750000 74.283 -18.4110
4.820000 74.500 -19.6337
4.870000 74.651 -20.4952
4.940000 74.859 -21.6836
5.000000 75.033 -22.6849
5.080000 75.260 -23.9933
5.150000 75.455 -25.1117
5.220000 75.646 -26.2037
5.300000 75.858 -27.4220
5.380000 76.066 -28.6126
5.450000 76.244 -29.6350
5.520000 76.420 -30.6414
5.600000 76.616 -31.7671
5.700000 76.857 -33.1398
5.800000 77.091 -34.4813
5.900000 77.322 -35.7975
6.000000 77.547 -37.0832
6.080000 77.724 -38.0917
6.150000 77.876 -38.9621
6.220000 78.027 -39.8234
6.300000 78.196 -40.7952
6.400000 78.404 -41.9885
6.500000 78.607 -43.1636
6.600000 78.806 -44.3261
6.700000 79.001 -45.4765
6.800000 79.192 -46.6127
6.900000 79.378 -47.7345
7.000000 79.560 -48.8419
7.100000 79.738 -49.9350
7.200000 79.911 -51.0137
7.300000 80.080 -52.0781
7.400000 80.245 -53.1287
7.500000 80.405 -54.1656
7.620000 80.593 -55.3899
7.750000 80.791 -56.6894
7.880000 80.982 -57.9610
8.000000 81.154 -59.1119
8.120000 81.322 -60.2420
8.250000 81.499 -61.4412
8.380000 81.671 -62.6184
8.500000 81.828 -63.6880
8.620000 81.980 -64.7393
8.750000 82.142 -65.8619
8.850000 82.264 -66.7165
9.000000 82.443 -67.9812
9.120000 82.582 -68.9802
9.250000 82.729 -70.0520
9.380000 82.873 -71.1119
9.500000 83.002 -72.0786
9.620000 83.127 -73.0343
9.750000 83.259 -74.0572
9.880000 83.387 -75.0647
10.000000 83.502 -75.9803
10.150000 83.641 -77.1059
10.300000 83.777 -78.2080
10.440000 83.899 -79.2146
10.600000 84.036 -80.3414
10.750000 84.161 -81.3753
10.900000 84.284 -82.3884
11.060000 84.412 -83.4523
11.200000 84.523 -84.3676
11.380000 84.663 -85.5311
11.500000 84.755 -86.2996
11.720000 84.919 -87.6957
11.800000 84.978 -88.2009
12.060000 85.163 -89.8316
12.200000 85.259 -90.7032
12.410000 85.399 -92.0005
12.500000 85.457 -92.5512
12.650000 85.550 -93.4629
12.800000 85.641 -94.3641
13.150000 85.841 -96.4189
13.200000 85.869 -96.7064
13.400000 85.975 -97.8407
13.600000 86.079 -98.9498
13.800000 86.178 -100.0331
14.000000 86.275 -101.0926
14.300000 86.416 -102.6390
14.500000 86.507 -103.6442
14.750000 86.618 -104.8758
15.000000 86.727 -106.0822
15.250000 86.834 -107.2680
15.500000 86.937 -108.4362
15.750000 87.038 -109.5889
16.000000 87.137 -110.7282
16.250000 87.232 -111.8544
16.500000 87.323 -112.9672
16.750000 87.411 -114.0661
17.000000 87.496 -115.1499
17.250000 87.577 -116.2182
17.500000 87.655 -117.2703
17.750000 87.730 -118.3056
18.000000 87.801 -119.3233
18.250000 87.870 -120.3226
18.500000 87.936 -121.3024
18.750000 87.999 -122.2623
19.000000 88.060 -123.2023
19.250000 88.120 -124.1243
19.500000 88.178 -125.0307
19.750000 88.235 -125.9239
20.000000 88.290 -126.8075
20.299999 88.354 -127.8569
20.600000 88.416 -128.8942
20.900000 88.473 -129.9173
21.200001 88.528 -130.9222
21.400000 88.562 -131.5801
21.799999 88.629 -132.8671
22.000000 88.661 -133.4971
22.400000 88.723 -134.7354
22.700001 88.768 -135.6498
23.000000 88.812 -136.5556
23.299999 88.854 -137.4530
23.600000 88.893 -138.3407
24.000000 88.942 -139.5060
24.299999 88.976 -140.3639
24.700001 89.019 -141.4847
25.000000 89.049 -142.3083
25.400000 89.087 -143.3853
25.799999 89.123 -144.4401
26.200001 89.158 -145.4746
26.500000 89.182 -146.2375
26.900000 89.214 -147.2378
27.200001 89.236 -147.9761
27.600000 89.265 -148.9464
28.000000 89.293 -149.9047
28.500000 89.324 -151.0893
29.000000 89.351 -152.2539
29.500000 89.374 -153.3845
30.000000 89.394 -154.4736
30.400000 89.411 -155.3231
30.700001 89.424 -155.9554
31.100000 89.441 -156.7991
31.500000 89.454 -157.6410
32.000000 89.466 -158.6723
32.500000 89.474 -159.6599
33.000000 89.484 -160.6070
33.500000 89.495 -161.5394
34.000000 89.507 -162.4782
34.500000 89.514 -163.4182
35.000000 89.517 -164.3381
35.500000 89.516 -165.2232
36.000000 89.516 -166.0780
36.500000 89.515 -166.9153
37.000000 89.515 -167.7449
37.500000 89.513 -168.5685
38.200001 89.507 -169.7068
38.700001 89.500 -170.5032
39.500000 89.486 -171.7357
40.000000 89.477 -172.4829
40.599998 89.468 -173.3692
41.200001 89.458 -174.2508
41.799999 89.447 -175.1200
42.500000 89.432 -176.1102
43.099998 89.419 -176.9406
43.700001 89.404 -177.7494
44.400002 89.386 -178.6605
45.000000 89.370 -179.4292
45.500000 89.355 179.9317
46.200001 89.328 179.0668
46.799999 89.304 178.3719
47.500000 89.278 177.5631
48.200001 89.245 176.7310
48.700001 89.212 176.1812
49.400002 89.173 175.5368
50.000000 89.159 175.0067
50.799999 89.155 174.1236
51.500000 89.136 173.2324
52.200001 89.101 172.3979
53.000000 89.064 171.5351
53.799999 89.031 170.6890
54.500000 89.002 169.9680
55.200001 88.972 169.2775
56.000000 88.939 168.5124
57.000000 88.894 167.5934
58.000000 88.848 166.7086
59.000000 88.801 165.8466
60.000000 88.754 164.9934
60.799999 88.715 164.3090
61.500000 88.679 163.7236
62.200001 88.645 163.1544
63.000000 88.609 162.5068
64.000000 88.563 161.6943
65.000000 88.514 160.9077
66.000000 88.464 160.1612
67.000000 88.414 159.4437
68.000000 88.365 158.7415
69.000000 88.317 158.0468
70.000000 88.267 157.3568
71.000000 88.216 156.6812
72.000000 88.167 156.0240
73.000000 88.118 155.3788
74.000000 88.069 154.7463
75.000000 88.020 154.1289
76.199997 87.960 153.4006
77.500000 87.894 152.6354
78.800003 87.829 151.8941
80.000000 87.770 151.2138
81.199997 87.710 150.5441
82.500000 87.647 149.8408
83.800003 87.585 149.1559
85.000000 87.527 148.5317
86.199997 87.469 147.9254
87.500000 87.405 147.2926
88.500000 87.357 146.8163
90.000000 87.287 146.1146
91.199997 87.231 145.5619
92.500000 87.171 144.9714
93.800003 87.110 144.3939
95.000000 87.055 143.8749
96.199997 87.001 143.3660
97.500000 86.941 142.8268
98.800003 86.882 142.3010
100.000000 86.828 141.8227
101.500000 86.760 141.2356
103.000000 86.695 140.6587
104.400002 86.634 140.1260
106.000000 86.564 139.5326
107.500000 86.499 138.9929
109.000000 86.436 138.4651
110.599998 86.369 137.9135
112.000000 86.311 137.4412
113.800003 86.237 136.8482
115.000000 86.188 136.4618
117.199997 86.100 135.7711
118.000000 86.069 135.5218
120.599998 85.967 134.7277
122.000000 85.913 134.3160
124.099998 85.834 133.7064
125.000000 85.800 133.4468
126.500000 85.745 133.0171
128.000000 85.688 132.5961
131.500000 85.560 131.6715
132.000000 85.542 131.5418
134.000000 85.472 131.0209
136.000000 85.402 130.5110
138.000000 85.335 130.0151
140.000000 85.267 129.5283
143.000000 85.166 128.8033
145.000000 85.106 128.3255
147.500000 85.044 127.7852
150.000000 84.985 127.2207
152.500000 84.894 126.6600
155.000000 84.799 126.1631
157.500000 84.719 125.6432
160.000000 84.649 125.1315
162.500000 84.580 124.6400
165.000000 84.511 124.1539
167.500000 84.444 123.6717
170.000000 84.378 123.2036
172.500000 84.312 122.7502
175.000000 84.248 122.2981
177.500000 84.186 121.8510
180.000000 84.126 121.4128
182.500000 84.067 120.9825
185.000000 84.008 120.5580
187.500000 83.951 120.1386
190.000000 83.894 119.7236
192.500000 83.840 119.3177
195.000000 83.787 118.9167
197.500000 83.734 118.5164
200.000000 83.681 118.1282
203.000000 83.622 117.6793
206.000000 83.565 117.2326
209.000000 83.507 116.7875
212.000000 83.452 116.3496
214.000000 83.415 116.0632
218.000000 83.345 115.4995
220.000000 83.311 115.2198
224.000000 83.245 114.6622
227.000000 83.196 114.2513
230.000000 83.148 113.8469
233.000000 83.100 113.4412
236.000000 83.055 113.0388
240.000000 82.998 112.5190
243.000000 82.959 112.1396
247.000000 82.911 111.6734
250.000000 82.874 111.3211
254.000000 82.817 110.7862
258.000000 82.762 110.2569
262.000000 82.715 109.7652
265.000000 82.680 109.4036
269.000000 82.635 108.9250
272.000000 82.602 108.5721
276.000000 82.561 108.1083
280.000000 82.521 107.6461
285.000000 82.474 107.0679
290.000000 82.426 106.4993
295.000000 82.381 105.9349
300.000000 82.339 105.3732
304.000000 82.307 104.9305
307.000000 82.285 104.6039
311.000000 82.255 104.1726
315.000000 82.226 103.7452
320.000000 82.191 103.2111
325.000000 82.158 102.6757
330.000000 82.128 102.1467
335.000000 82.099 101.6270
340.000000 82.072 101.1179
345.000000 82.049 100.6193
350.000000 82.028 100.1171
355.000000 82.002 99.5895
360.000000 81.976 99.0715
365.000000 81.953 98.5764
370.000000 81.934 98.0804
375.000000 81.917 97.5794
382.000000 81.893 96.8801
387.000000 81.876 96.3838
395.000000 81.854 95.5938
400.000000 81.842 95.1071
406.000000 81.822 94.5383
412.000000 81.805 93.9768
418.000000 81.792 93.4149
425.000000 81.779 92.7653
431.000000 81.770 92.2115
437.000000 81.759 91.6588
444.000000 81.746 91.0428
450.000000 81.737 90.5235
455.000000 81.731 90.0480
462.000000 81.723 89.3755
468.000000 81.716 88.8255
475.000000 81.708 88.1955
482.000000 81.699 87.5777
487.000000 81.693 87.1423
494.000000 81.685 86.5342
500.000000 81.679 86.0168
508.000000 81.671 85.3430
515.000000 81.664 84.7667
522.000000 81.658 84.1962
530.000000 81.652 83.5535
538.000000 81.646 82.9110
545.000000 81.641 82.3489
552.000000 81.636 81.8082
560.000000 81.633 81.2272
570.000000 81.629 80.5085
580.000000 81.626 79.7953
590.000000 81.622 79.0979
600.000000 81.621 78.4193
608.000000 81.620 77.8868
615.000000 81.620 77.4305
622.000000 81.621 76.9879
630.000000 81.621 76.4951
640.000000 81.621 75.9034
650.000000 81.622 75.3326
660.000000 81.629 74.7493
670.000000 81.637 74.1839
680.000000 81.644 73.6431
690.000000 81.653 73.1209
700.000000 81.664 72.6233
710.000000 81.677 72.1443
720.000000 81.691 71.6782
730.000000 81.706 71.2237
740.000000 81.723 70.7768
750.000000 81.742 70.3463
762.000000 81.771 69.8695
775.000000 81.805 69.3617
788.000000 81.842 68.8616
800.000000 81.880 68.4141
812.000000 81.922 67.9763
825.000000 81.972 67.5104
838.000000 82.027 67.0461
850.000000 82.081 66.6201
862.000000 82.140 66.2019
875.000000 82.207 65.7490
885.000000 82.261 65.3910
900.000000 82.347 64.8420
912.000000 82.419 64.3951
925.000000 82.501 63.8916
938.000000 82.585 63.3644
950.000000 82.665 62.8598
962.000000 82.748 62.3505
975.000000 82.840 61.7760
988.000000 82.932 61.1700
1000.000000 83.019 60.5873
1015.000000 83.126 59.8307
1030.000000 83.234 59.0463
1044.000000 83.333 58.2857
1060.000000 83.444 57.3900
1075.000000 83.547 56.5217
1090.000000 83.648 55.6294
1106.000000 83.752 54.6560
1120.000000 83.841 53.7862
1138.000000 83.951 52.6429
1150.000000 84.021 51.8689
1172.000000 84.144 50.4416
1180.000000 84.187 49.9171
1206.000000 84.319 48.1972
1220.000000 84.387 47.2698
1241.000000 84.485 45.8820
1250.000000 84.526 45.2864
1265.000000 84.591 44.2908
1280.000000 84.654 43.2960
1315.000000 84.792 41.0002
1320.000000 84.811 40.6740
1340.000000 84.885 39.3710
1360.000000 84.958 38.0793
1380.000000 85.029 36.7951
1400.000000 85.097 35.5165
1430.000000 85.200 33.6133
1450.000000 85.268 32.3464
1475.000000 85.355 30.7641
1500.000000 85.443 29.1632
1525.000000 85.532 27.5356
1550.000000 85.621 25.8825
1575.000000 85.707 24.1940
1600.000000 85.793 22.4722
1625.000000 85.877 20.7185
1650.000000 85.960 18.9272
1675.000000 86.039 17.0972
1700.000000 86.115 15.2214
1725.000000 86.189 13.3021
1750.000000 86.258 11.3439
1775.000000 86.322 9.3482
1800.000000 86.380 7.3094
1825.000000 86.432 5.2279
1850.000000 86.477 3.1099
1875.000000 86.514 0.9574
1900.000000 86.542 -1.2246
1925.000000 86.562 -3.4329
1950.000000 86.572 -5.6613
1975.000000 86.574 -7.9034
2000.000000 86.567 -10.1517
2030.000000 86.546 -12.8474
2060.000000 86.511 -15.5306
2090.000000 86.466 -18.1929
2120.000000 86.409 -20.8278
2140.000000 86.365 -22.5642
2180.000000 86.264 -25.9725
2200.000000 86.209 -27.6412
2240.000000 86.090 -30.9050
2270.000000 85.996 -33.2793
2300.000000 85.901 -35.5885
2330.000000 85.804 -37.8332
2360.000000 85.708 -40.0120
2400.000000 85.585 -42.8206
2430.000000 85.498 -44.8566
2470.000000 85.390 -47.4897
2500.000000 85.318 -49.4080
2540.000000 85.235 -51.8976
2580.000000 85.169 -54.3240
2620.000000 85.123 -56.7050
2650.000000 85.102 -58.4696
2690.000000 85.093 -60.8061
2720.000000 85.101 -62.5607
2760.000000 85.132 -64.9196
2800.000000 85.186 -67.3140
2850.000000 85.285 -70.3898
2900.000000 85.416 -73.6051
2950.000000 85.576 -77.0063
3000.000000 85.758 -80.6376
3040.000000 85.913 -83.7333
3070.000000 86.031 -86.1780
3110.000000 86.185 -89.6074
3150.000000 86.327 -93.2327
3200.000000 86.477 -98.0195
3250.000000 86.579 -103.0341
3300.000000 86.620 -108.1855
3350.000000 86.591 -113.3474
3400.000000 86.489 -118.3735
3450.000000 86.319 -123.1187
3500.000000 86.093 -127.4726
3550.000000 85.828 -131.3645
3600.000000 85.539 -134.7605
3650.000000 85.242 -137.6587
3700.000000 84.950 -140.0867
3750.000000 84.671 -142.0924
3820.000000 84.314 -144.2723
3870.000000 84.088 -145.4265
3950.000000 83.784 -146.6465
4000.000000 83.636 -147.0505
4060.000000 83.513 -147.2163
4120.000000 83.459 -147.1058
4180.000000 83.483 -146.8361
4250.000000 83.616 -146.5444
4310.000000 83.804 -146.5164
4370.000000 84.034 -146.7950
4440.000000 84.329 -147.4835
4500.000000 84.595 -148.3555
4550.000000 84.821 -149.2909
4620.000000 85.128 -150.9374
4680.000000 85.371 -152.6467
4750.000000 85.614 -154.9250
4820.000000 85.802 -157.4153
4870.000000 85.898 -159.2612
4940.000000 85.981 -161.8568
5000.000000 86.004 -164.0303
5080.000000 85.971 -166.7670
5150.000000 85.892 -168.9412
5220.000000 85.771 -170.8594
5300.000000 85.590 -172.6837
5380.000000 85.378 -174.0515
5450.000000 85.180 -174.8407
5520.000000 84.983 -175.2452
5600.000000 84.779 -175.2643
5700.000000 84.582 -174.7552
5800.000000 84.467 -173.8710
5900.000000 84.438 -172.8340
6000.000000 84.487 -171.8419
6080.000000 84.571 -171.1776
6150.000000 84.670 -170.7299
6220.000000 84.785 -170.4263
6300.000000 84.931 -170.2700
6400.000000 85.122 -170.3683
6500.000000 85.307 -170.7840
6600.000000 85.473 -171.4871
6700.000000 85.610 -172.4294
6800.000000 85.711 -173.5475
6900.000000 85.771 -174.7660
7000.000000 85.792 -176.0114
7100.000000 85.779 -177.2328
7200.000000 85.737 -178.4146
7300.000000 85.666 -179.5452
7400.000000 85.570 179.4138
7500.000000 85.454 178.4830
7620.000000 85.298 177.4938
7750.000000 85.111 176.5493
7880.000000 84.909 175.7133
8000.000000 84.711 175.0031
8120.000000 84.494 174.3262
8250.000000 84.222 173.6915
8380.000000 83.926 173.4268
8500.000000 83.685 173.3025
8620.000000 83.434 172.9872
8750.000000 83.113 172.7197
8850.000000 82.844 172.6778
9000.000000 82.420 172.9172
9120.000000 82.074 173.3801
9250.000000 81.704 174.1336
9380.000000 81.346 175.1240
9500.000000 81.033 176.2273
9620.000000 80.741 177.4800
9750.000000 80.449 178.9772
9880.000000 80.185 -179.3972
10000.000000 79.970 -177.7893
10150.000000 79.749 -175.6624
10300.000000 79.593 -173.5197
10440.000000 79.508 -171.6234
10600.000000 79.478 -169.7002
10750.000000 79.510 -168.2465
10900.000000 79.586 -167.2393
11060.000000 79.699 -166.7614
11200.000000 79.806 -166.9029
11380.000000 79.920 -167.8674
11500.000000 79.964 -168.9637
11720.000000 79.936 -171.6766
11800.000000 79.884 -172.8083
12060.000000 79.564 -176.4960
12200.000000 79.330 -178.2322
12410.000000 78.988 179.3281
12500.000000 78.848 178.1879
12650.000000 78.604 176.0830
12800.000000 78.335 173.7728
13150.000000 77.595 167.8094
13200.000000 77.477 166.8906
13400.000000 76.973 163.0164
13600.000000 76.405 158.8044
13800.000000 75.749 154.2696
14000.000000 74.977 149.5461
14300.000000 73.566 142.6441
14500.000000 72.460 138.6279
14750.000000 70.933 134.8616
15000.000000 69.360 132.8190
15250.000000 67.887 132.3967
15500.000000 66.649 132.7095
15750.000000 65.665 132.5464
16000.000000 64.826 131.3474
16250.000000 64.034 129.3066
16500.000000 63.272 126.7688
16750.000000 62.589 123.8847
17000.000000 62.033 120.3574
17250.000000 61.629 115.6013
17500.000000 61.378 109.0609
17750.000000 61.215 99.9227
18000.000000 60.978 87.4664
18250.000000 60.452 71.9371
18500.000000 59.417 54.9502
18750.000000 57.800 40.5500
19000.000000 56.335 31.6425
19250.000000 56.300 18.7767
19500.000000 56.249 -6.5888
19750.000000 55.075 -33.9464
