* Measurement data measured by REW V5.20.9
* Source: Frequency Response Averaged data
* Format: Averaged data produced from the rms magnitudes of Fiio FD5, Jul 11, Jul 11
* Dated: 11/07/2022 8:54:08 PM
* REW Settings:
*  C-weighting compensation: Off
*  Target level: 75.0 dB
* Note: ; Averaged data produced from the rms magnitudes of Fiio FD5, Jul 11, Jul 11
* Measurement: Fiio FD5 - R
* Smoothing: 1/24 octave
* Frequency Step: 1/48 octave
* Start Frequency: 2.200 Hz
*
* Freq(Hz) SPL(dB)
2.200000 72.886
2.240000 73.080
2.270000 73.226
2.300000 73.373
2.330000 73.519
2.360000 73.665
2.400000 73.859
2.430000 74.006
2.470000 74.200
2.500000 74.346
2.540000 74.541
2.580000 74.742
2.620000 74.960
2.650000 75.129
2.690000 75.359
2.720000 75.534
2.760000 75.765
2.800000 75.992
2.850000 76.264
2.900000 76.514
2.950000 76.737
3.000000 76.935
3.040000 77.078
3.070000 77.179
3.110000 77.306
3.150000 77.428
3.200000 77.578
3.250000 77.729
3.300000 77.886
3.350000 78.047
3.400000 78.207
3.450000 78.365
3.500000 78.522
3.550000 78.677
3.600000 78.831
3.650000 78.982
3.700000 79.132
3.750000 79.279
3.820000 79.482
3.870000 79.625
3.950000 79.852
4.000000 79.994
4.060000 80.165
4.120000 80.336
4.180000 80.507
4.250000 80.705
4.310000 80.873
4.370000 81.040
4.440000 81.232
4.500000 81.397
4.550000 81.533
4.620000 81.722
4.680000 81.881
4.750000 82.061
4.820000 82.236
4.870000 82.359
4.940000 82.527
5.000000 82.668
5.080000 82.849
5.150000 83.002
5.220000 83.149
5.300000 83.311
5.380000 83.467
5.450000 83.598
5.520000 83.725
5.600000 83.862
5.700000 84.024
5.800000 84.180
5.900000 84.331
6.000000 84.475
6.080000 84.587
6.150000 84.683
6.220000 84.780
6.300000 84.890
6.400000 85.027
6.500000 85.163
6.600000 85.303
6.700000 85.446
6.800000 85.590
6.900000 85.737
7.000000 85.885
7.100000 86.035
7.200000 86.187
7.300000 86.336
7.400000 86.482
7.500000 86.627
7.620000 86.794
7.750000 86.964
7.880000 87.123
8.000000 87.258
8.120000 87.380
8.250000 87.497
8.380000 87.601
8.500000 87.687
8.620000 87.760
8.750000 87.833
8.850000 87.888
9.000000 87.963
9.120000 88.025
9.250000 88.099
9.380000 88.179
9.500000 88.260
9.620000 88.353
9.750000 88.464
9.880000 88.584
10.000000 88.702
10.150000 88.859
10.300000 89.015
10.440000 89.162
10.600000 89.323
10.750000 89.461
10.900000 89.588
11.060000 89.707
11.200000 89.795
11.380000 89.892
11.500000 89.946
11.720000 90.027
11.800000 90.053
12.060000 90.126
12.200000 90.164
12.410000 90.219
12.500000 90.243
12.650000 90.285
12.800000 90.328
13.150000 90.431
13.200000 90.445
13.400000 90.503
13.600000 90.562
13.800000 90.622
14.000000 90.687
14.300000 90.796
14.500000 90.881
14.750000 90.999
15.000000 91.126
15.250000 91.257
15.500000 91.383
15.750000 91.500
16.000000 91.603
16.250000 91.692
16.500000 91.767
16.750000 91.831
17.000000 91.887
17.250000 91.936
17.500000 91.979
17.750000 92.017
18.000000 92.053
18.250000 92.087
18.500000 92.123
18.750000 92.162
19.000000 92.205
19.250000 92.251
19.500000 92.299
19.750000 92.347
20.000000 92.393
20.299999 92.446
20.600000 92.493
20.900000 92.537
21.200001 92.579
21.400000 92.605
21.799999 92.654
22.000000 92.676
22.400000 92.715
22.700001 92.741
23.000000 92.765
23.299999 92.789
23.600000 92.816
24.000000 92.856
24.299999 92.889
24.700001 92.933
25.000000 92.967
25.400000 93.009
25.799999 93.050
26.200001 93.088
26.500000 93.115
26.900000 93.152
27.200001 93.178
27.600000 93.210
28.000000 93.235
28.500000 93.252
29.000000 93.253
29.500000 93.251
30.000000 93.259
30.400000 93.275
30.700001 93.289
31.100000 93.305
31.500000 93.312
32.000000 93.313
32.500000 93.317
33.000000 93.340
33.500000 93.382
34.000000 93.426
34.500000 93.457
35.000000 93.469
35.500000 93.469
36.000000 93.465
36.500000 93.462
37.000000 93.462
37.500000 93.463
38.200001 93.461
38.700001 93.458
39.500000 93.466
40.000000 93.483
40.599998 93.504
41.200001 93.509
41.799999 93.496
42.500000 93.481
43.099998 93.479
43.700001 93.482
44.400002 93.477
45.000000 93.466
45.500000 93.463
46.200001 93.475
46.799999 93.493
47.500000 93.495
48.200001 93.469
48.700001 93.443
49.400002 93.419
50.000000 93.416
50.799999 93.430
51.500000 93.443
52.200001 93.437
53.000000 93.402
53.799999 93.356
54.500000 93.319
55.200001 93.284
56.000000 93.239
57.000000 93.176
58.000000 93.114
59.000000 93.064
60.000000 93.037
60.799999 93.034
61.500000 93.046
62.200001 93.073
63.000000 93.118
64.000000 93.172
65.000000 93.193
66.000000 93.171
67.000000 93.133
68.000000 93.108
69.000000 93.095
70.000000 93.079
71.000000 93.050
72.000000 93.013
73.000000 92.974
74.000000 92.937
75.000000 92.906
76.199997 92.876
77.500000 92.840
78.800003 92.775
80.000000 92.694
81.199997 92.618
82.500000 92.564
83.800003 92.537
85.000000 92.527
86.199997 92.513
87.500000 92.476
88.500000 92.438
90.000000 92.380
91.199997 92.341
92.500000 92.306
93.800003 92.269
95.000000 92.225
96.199997 92.175
97.500000 92.131
98.800003 92.107
100.000000 92.097
101.500000 92.081
103.000000 92.052
104.400002 92.020
106.000000 91.984
107.500000 91.952
109.000000 91.920
110.599998 91.879
112.000000 91.836
113.800003 91.777
115.000000 91.738
117.199997 91.669
118.000000 91.644
120.599998 91.555
122.000000 91.506
124.099998 91.438
125.000000 91.410
126.500000 91.363
128.000000 91.312
131.500000 91.159
132.000000 91.135
134.000000 91.055
136.000000 91.013
138.000000 90.982
140.000000 90.935
143.000000 90.845
145.000000 90.787
147.500000 90.718
150.000000 90.644
152.500000 90.563
155.000000 90.478
157.500000 90.400
160.000000 90.333
162.500000 90.275
165.000000 90.218
167.500000 90.151
170.000000 90.071
172.500000 89.991
175.000000 89.918
177.500000 89.848
180.000000 89.780
182.500000 89.712
185.000000 89.644
187.500000 89.578
190.000000 89.515
192.500000 89.451
195.000000 89.387
197.500000 89.326
200.000000 89.266
203.000000 89.193
206.000000 89.116
209.000000 89.040
212.000000 88.969
214.000000 88.922
218.000000 88.830
220.000000 88.783
224.000000 88.691
227.000000 88.626
230.000000 88.564
233.000000 88.500
236.000000 88.432
240.000000 88.340
243.000000 88.270
247.000000 88.181
250.000000 88.122
254.000000 88.045
258.000000 87.961
262.000000 87.873
265.000000 87.814
269.000000 87.762
272.000000 87.736
276.000000 87.693
280.000000 87.621
285.000000 87.507
290.000000 87.399
295.000000 87.307
300.000000 87.222
304.000000 87.156
307.000000 87.108
311.000000 87.043
315.000000 86.978
320.000000 86.899
325.000000 86.823
330.000000 86.752
335.000000 86.683
340.000000 86.613
345.000000 86.545
350.000000 86.476
355.000000 86.407
360.000000 86.341
365.000000 86.278
370.000000 86.217
375.000000 86.158
382.000000 86.077
387.000000 86.021
395.000000 85.931
400.000000 85.875
406.000000 85.808
412.000000 85.744
418.000000 85.683
425.000000 85.612
431.000000 85.552
437.000000 85.496
444.000000 85.440
450.000000 85.397
455.000000 85.362
462.000000 85.312
468.000000 85.264
475.000000 85.192
482.000000 85.112
487.000000 85.063
494.000000 85.016
500.000000 84.987
508.000000 84.945
515.000000 84.899
522.000000 84.851
530.000000 84.801
538.000000 84.753
545.000000 84.712
552.000000 84.672
560.000000 84.628
570.000000 84.579
580.000000 84.533
590.000000 84.487
600.000000 84.444
608.000000 84.414
615.000000 84.390
622.000000 84.367
630.000000 84.340
640.000000 84.308
650.000000 84.280
660.000000 84.257
670.000000 84.237
680.000000 84.220
690.000000 84.203
700.000000 84.186
710.000000 84.172
720.000000 84.162
730.000000 84.157
740.000000 84.155
750.000000 84.154
762.000000 84.158
775.000000 84.169
788.000000 84.186
800.000000 84.207
812.000000 84.232
825.000000 84.264
838.000000 84.300
850.000000 84.338
862.000000 84.382
875.000000 84.437
885.000000 84.483
900.000000 84.559
912.000000 84.626
925.000000 84.703
938.000000 84.785
950.000000 84.865
962.000000 84.943
975.000000 85.006
988.000000 85.020
1000.000000 84.977
1015.000000 84.902
1030.000000 84.903
1044.000000 84.996
1060.000000 85.149
1075.000000 85.290
1090.000000 85.418
1106.000000 85.543
1120.000000 85.644
1138.000000 85.766
1150.000000 85.843
1172.000000 85.977
1180.000000 86.024
1206.000000 86.171
1220.000000 86.247
1241.000000 86.358
1250.000000 86.404
1265.000000 86.481
1280.000000 86.557
1315.000000 86.731
1320.000000 86.756
1340.000000 86.854
1360.000000 86.950
1380.000000 87.045
1400.000000 87.140
1430.000000 87.285
1450.000000 87.382
1475.000000 87.504
1500.000000 87.629
1525.000000 87.757
1550.000000 87.888
1575.000000 88.022
1600.000000 88.161
1625.000000 88.301
1650.000000 88.444
1675.000000 88.588
1700.000000 88.735
1725.000000 88.883
1750.000000 89.034
1775.000000 89.187
1800.000000 89.342
1825.000000 89.498
1850.000000 89.655
1875.000000 89.813
1900.000000 89.971
1925.000000 90.128
1950.000000 90.283
1975.000000 90.436
2000.000000 90.587
2030.000000 90.768
2060.000000 90.952
2090.000000 91.146
2120.000000 91.356
2140.000000 91.506
2180.000000 91.819
2200.000000 91.976
2240.000000 92.272
2270.000000 92.472
2300.000000 92.650
2330.000000 92.806
2360.000000 92.943
2400.000000 93.095
2430.000000 93.187
2470.000000 93.282
2500.000000 93.333
2540.000000 93.372
2580.000000 93.383
2620.000000 93.367
2650.000000 93.338
2690.000000 93.279
2720.000000 93.220
2760.000000 93.124
2800.000000 93.012
2850.000000 92.852
2900.000000 92.675
2950.000000 92.488
3000.000000 92.296
3040.000000 92.142
3070.000000 92.027
3110.000000 91.875
3150.000000 91.728
3200.000000 91.553
3250.000000 91.389
3300.000000 91.236
3350.000000 91.092
3400.000000 90.957
3450.000000 90.830
3500.000000 90.709
3550.000000 90.592
3600.000000 90.479
3650.000000 90.368
3700.000000 90.261
3750.000000 90.164
3820.000000 90.054
3870.000000 90.005
3950.000000 89.982
4000.000000 90.002
4060.000000 90.057
4120.000000 90.140
4180.000000 90.248
4250.000000 90.401
4310.000000 90.553
4370.000000 90.725
4440.000000 90.949
4500.000000 91.163
4550.000000 91.356
4620.000000 91.648
4680.000000 91.917
4750.000000 92.254
4820.000000 92.613
4870.000000 92.880
4940.000000 93.265
5000.000000 93.597
5080.000000 94.020
5150.000000 94.352
5220.000000 94.642
5300.000000 94.932
5380.000000 95.189
5450.000000 95.369
5520.000000 95.477
5600.000000 95.496
5700.000000 95.361
5800.000000 95.071
5900.000000 94.657
6000.000000 94.157
6080.000000 93.722
6150.000000 93.335
6220.000000 92.955
6300.000000 92.540
6400.000000 92.067
6500.000000 91.658
6600.000000 91.320
6700.000000 91.059
6800.000000 90.876
6900.000000 90.775
7000.000000 90.758
7100.000000 90.828
7200.000000 90.990
7300.000000 91.248
7400.000000 91.610
7500.000000 92.084
7620.000000 92.808
7750.000000 93.766
7880.000000 94.822
8000.000000 95.726
8120.000000 96.358
8250.000000 96.524
8380.000000 96.042
8500.000000 95.064
8620.000000 93.717
8750.000000 92.057
8850.000000 90.765
9000.000000 88.952
9120.000000 87.662
9250.000000 86.439
9380.000000 85.385
9500.000000 84.547
9620.000000 83.825
9750.000000 83.160
9880.000000 82.609
10000.000000 82.195
10150.000000 81.797
10300.000000 81.529
10440.000000 81.394
10600.000000 81.381
10750.000000 81.515
10900.000000 81.804
11060.000000 82.307
11200.000000 82.939
11380.000000 84.049
11500.000000 84.967
11720.000000 86.831
11800.000000 87.465
12060.000000 88.750
12200.000000 88.705
12410.000000 87.577
12500.000000 86.766
12650.000000 85.135
12800.000000 83.353
13150.000000 79.571
13200.000000 79.117
13400.000000 77.528
13600.000000 76.264
13800.000000 75.286
14000.000000 74.560
14300.000000 73.878
14500.000000 73.665
14750.000000 73.666
15000.000000 74.039
15250.000000 74.923
15500.000000 76.380
15750.000000 78.198
16000.000000 79.832
16250.000000 80.670
16500.000000 80.393
16750.000000 79.116
17000.000000 77.349
17250.000000 75.740
17500.000000 74.615
17750.000000 73.903
18000.000000 73.375
18250.000000 72.679
18500.000000 71.420
18750.000000 69.351
19000.000000 66.460
19250.000000 62.963
19500.000000 59.340
19750.000000 56.394
