* Measurement data measured by REW V5.20.9
* Source: USB-C to 3.5mm Headphone Jack Adapter, USB-C to 3.5mm Headphone Jack Adapter, 0, volume: 0.138
* Format: 256k Log Swept Sine, 1 sweep at -12.0 dBFS with no timing reference
* Dated: 02/09/2022 9:37:00 PM
* REW Settings:
*  C-weighting compensation: Off
*  Target level: 75.0 dB
* Note: ; 
* Measurement: FF3 R
* Smoothing: 1/24 octave
* Frequency Step: 1/48 octave
* Start Frequency: 1.000 Hz
*
* Freq(Hz) SPL(dB) Phase(degrees)
1.000000 45.374 62.4181
1.015000 45.483 60.5301
1.030000 45.602 58.7167
1.044000 45.722 57.0792
1.060000 45.868 55.2697
1.075000 46.014 53.6303
1.090000 46.167 52.0432
1.106000 46.338 50.4047
1.120000 46.493 49.0143
1.138000 46.699 47.2824
1.150000 46.839 46.1602
1.172000 47.103 44.1650
1.180000 47.200 43.4579
1.206000 47.519 41.2211
1.220000 47.692 40.0515
1.241000 47.952 38.3366
1.250000 48.063 37.6145
1.265000 48.246 36.4257
1.280000 48.427 35.2530
1.315000 48.835 32.5628
1.320000 48.892 32.1823
1.340000 49.111 30.6651
1.360000 49.323 29.1620
1.380000 49.533 27.7002
1.400000 49.743 26.2808
1.430000 50.057 24.2293
1.450000 50.265 22.9121
1.475000 50.522 21.3209
1.500000 50.778 19.7898
1.525000 51.031 18.3170
1.550000 51.282 16.9011
1.575000 51.529 15.5403
1.600000 51.773 14.2331
1.625000 52.013 12.9779
1.650000 52.250 11.7729
1.675000 52.482 10.6168
1.700000 52.709 9.5177
1.725000 52.933 8.4997
1.750000 53.152 7.5567
1.775000 53.368 6.6811
1.800000 53.580 5.8654
1.825000 53.789 5.1019
1.850000 53.995 4.3829
1.875000 54.198 3.7008
1.900000 54.398 3.0479
1.925000 54.596 2.4167
1.950000 54.792 1.7995
1.975000 54.986 1.1887
2.000000 55.178 0.5766
2.030000 55.407 -0.1660
2.060000 55.631 -0.8815
2.090000 55.851 -1.5615
2.120000 56.067 -2.2091
2.140000 56.209 -2.6243
2.180000 56.489 -3.4193
2.200000 56.628 -3.8008
2.240000 56.901 -4.5364
2.270000 57.103 -5.0677
2.300000 57.305 -5.5849
2.330000 57.505 -6.0911
2.360000 57.705 -6.5890
2.400000 57.968 -7.2232
2.430000 58.164 -7.6725
2.470000 58.421 -8.2410
2.500000 58.611 -8.6478
2.540000 58.863 -9.1684
2.580000 59.112 -9.6696
2.620000 59.360 -10.1570
2.650000 59.544 -10.5171
2.690000 59.789 -10.9944
2.720000 59.972 -11.3445
2.760000 60.213 -11.7869
2.800000 60.453 -12.2078
2.850000 60.750 -12.7144
2.900000 61.044 -13.2122
2.950000 61.334 -13.7150
3.000000 61.621 -14.2364
3.040000 61.848 -14.6756
3.070000 62.018 -15.0144
3.110000 62.242 -15.4740
3.150000 62.463 -15.9410
3.200000 62.738 -16.5323
3.250000 63.009 -17.1287
3.300000 63.275 -17.7265
3.350000 63.537 -18.3223
3.400000 63.795 -18.9125
3.450000 64.049 -19.4980
3.500000 64.300 -20.0827
3.550000 64.546 -20.6706
3.600000 64.787 -21.2656
3.650000 65.025 -21.8716
3.700000 65.257 -22.4928
3.750000 65.485 -23.1332
3.820000 65.796 -24.0577
3.870000 66.013 -24.7303
3.950000 66.351 -25.8120
4.000000 66.556 -26.4827
4.060000 66.797 -27.2741
4.120000 67.032 -28.0584
4.180000 67.260 -28.8390
4.250000 67.518 -29.7455
4.310000 67.733 -30.5194
4.370000 67.944 -31.2907
4.440000 68.182 -32.1905
4.500000 68.381 -32.9617
4.550000 68.542 -33.6018
4.620000 68.762 -34.4898
4.680000 68.946 -35.2398
4.750000 69.156 -36.0984
4.820000 69.359 -36.9427
4.870000 69.501 -37.5380
4.940000 69.695 -38.3613
5.000000 69.858 -39.0581
5.080000 70.070 -39.9755
5.150000 70.250 -40.7659
5.220000 70.426 -41.5451
5.300000 70.621 -42.4229
5.380000 70.812 -43.2884
5.450000 70.975 -44.0359
5.520000 71.134 -44.7738
5.600000 71.311 -45.6050
5.700000 71.525 -46.6249
5.800000 71.733 -47.6238
5.900000 71.933 -48.6020
6.000000 72.126 -49.5581
6.080000 72.277 -50.3062
6.150000 72.405 -50.9503
6.220000 72.529 -51.5837
6.300000 72.668 -52.2920
6.400000 72.838 -53.1498
6.500000 73.002 -53.9761
6.600000 73.161 -54.7731
6.700000 73.316 -55.5410
6.800000 73.469 -56.2790
6.900000 73.618 -56.9863
7.000000 73.764 -57.6674
7.100000 73.910 -58.3260
7.200000 74.055 -58.9570
7.300000 74.198 -59.5664
7.400000 74.340 -60.1645
7.500000 74.482 -60.7512
7.620000 74.651 -61.4380
7.750000 74.833 -62.1764
7.880000 75.012 -62.9125
8.000000 75.176 -63.5879
8.120000 75.335 -64.2627
8.250000 75.503 -64.9955
8.380000 75.666 -65.7207
8.500000 75.811 -66.3789
8.620000 75.950 -67.0290
8.750000 76.096 -67.7090
8.850000 76.204 -68.2119
9.000000 76.361 -68.9362
9.120000 76.483 -69.4817
9.250000 76.612 -70.0366
9.380000 76.739 -70.5597
9.500000 76.855 -71.0164
9.620000 76.971 -71.4459
9.750000 77.096 -71.8939
9.880000 77.221 -72.3282
10.000000 77.336 -72.7162
10.150000 77.478 -73.1964
10.300000 77.618 -73.6720
10.440000 77.746 -74.1061
10.600000 77.886 -74.5942
10.750000 78.014 -75.0304
10.900000 78.136 -75.4341
11.060000 78.263 -75.8274
11.200000 78.372 -76.1242
11.380000 78.512 -76.4474
11.500000 78.609 -76.6320
11.720000 78.793 -76.9059
11.800000 78.864 -77.0055
12.060000 79.109 -77.3235
12.200000 79.248 -77.5466
12.410000 79.463 -77.9590
12.500000 79.553 -78.1809
12.650000 79.704 -78.6105
12.800000 79.846 -79.0996
13.150000 80.135 -80.4435
13.200000 80.170 -80.6442
13.400000 80.293 -81.4492
13.600000 80.392 -82.1676
13.800000 80.472 -82.7767
14.000000 80.540 -83.2186
14.300000 80.647 -83.5852
14.500000 80.732 -83.6730
14.750000 80.867 -83.6767
15.000000 81.031 -83.7081
15.250000 81.217 -83.8498
15.500000 81.412 -84.1515
15.750000 81.602 -84.6226
16.000000 81.775 -85.2001
16.250000 81.930 -85.8234
16.500000 82.068 -86.4398
16.750000 82.195 -87.0047
17.000000 82.317 -87.5182
17.250000 82.439 -87.9989
17.500000 82.561 -88.4682
17.750000 82.681 -88.9512
18.000000 82.796 -89.4467
18.250000 82.903 -89.9383
18.500000 83.002 -90.4045
18.750000 83.094 -90.8136
19.000000 83.185 -91.1544
19.250000 83.280 -91.4340
19.500000 83.381 -91.6682
19.750000 83.492 -91.8943
20.000000 83.609 -92.1444
20.299999 83.755 -92.5007
20.600000 83.900 -92.9275
20.900000 84.037 -93.4059
21.200001 84.164 -93.9007
21.400000 84.244 -94.2215
21.799999 84.397 -94.8177
22.000000 84.473 -95.0912
22.400000 84.627 -95.6049
22.700001 84.747 -95.9846
23.000000 84.869 -96.3795
23.299999 84.991 -96.8021
23.600000 85.112 -97.2579
24.000000 85.267 -97.9118
24.299999 85.375 -98.4208
24.700001 85.507 -99.0887
25.000000 85.598 -99.5531
25.400000 85.715 -100.0962
25.799999 85.834 -100.5555
26.200001 85.962 -100.9744
26.500000 86.062 -101.2965
26.900000 86.195 -101.7595
27.200001 86.290 -102.1218
27.600000 86.407 -102.5740
28.000000 86.519 -102.9360
28.500000 86.669 -103.2471
29.000000 86.847 -103.5329
29.500000 87.042 -103.9700
30.000000 87.224 -104.6108
30.400000 87.347 -105.1909
30.700001 87.424 -105.6003
31.100000 87.515 -106.0552
31.500000 87.605 -106.3950
32.000000 87.730 -106.7312
32.500000 87.872 -107.0997
33.000000 88.015 -107.5998
33.500000 88.141 -108.2200
34.000000 88.240 -108.8446
34.500000 88.321 -109.3458
35.000000 88.405 -109.6891
35.500000 88.511 -109.9701
36.000000 88.636 -110.3392
36.500000 88.762 -110.8696
37.000000 88.872 -111.5076
37.500000 88.964 -112.1476
38.200001 89.077 -112.9366
38.700001 89.157 -113.4201
39.500000 89.293 -114.0750
40.000000 89.392 -114.4334
40.599998 89.526 -114.8961
41.200001 89.667 -115.4740
41.799999 89.796 -116.1513
42.500000 89.923 -116.9313
43.099998 90.020 -117.5057
43.700001 90.119 -118.0101
44.400002 90.238 -118.5950
45.000000 90.336 -119.1255
45.500000 90.412 -119.5702
46.200001 90.512 -120.1634
46.799999 90.601 -120.6619
47.500000 90.709 -121.3087
48.200001 90.806 -122.0601
48.700001 90.862 -122.6084
49.400002 90.927 -123.2617
50.000000 90.990 -123.6828
50.799999 91.105 -124.1986
51.500000 91.219 -124.7501
52.200001 91.327 -125.3547
53.000000 91.445 -126.0094
53.799999 91.564 -126.6678
54.500000 91.660 -127.2811
55.200001 91.743 -127.8919
56.000000 91.822 -128.5440
57.000000 91.911 -129.2481
58.000000 92.010 -129.9151
59.000000 92.110 -130.7043
60.000000 92.203 -131.5372
60.799999 92.278 -132.2284
61.500000 92.340 -132.8551
62.200001 92.401 -133.4657
63.000000 92.472 -134.1556
64.000000 92.554 -135.0276
65.000000 92.628 -135.8057
66.000000 92.709 -136.4877
67.000000 92.802 -137.1707
68.000000 92.897 -137.9670
69.000000 92.970 -138.8250
70.000000 93.030 -139.5814
71.000000 93.094 -140.2818
72.000000 93.160 -140.9823
73.000000 93.228 -141.6987
74.000000 93.292 -142.4549
75.000000 93.348 -143.1893
76.199997 93.420 -144.0588
77.500000 93.491 -145.0440
78.800003 93.553 -145.9756
80.000000 93.611 -146.7943
81.199997 93.667 -147.6121
82.500000 93.721 -148.4816
83.800003 93.772 -149.3665
85.000000 93.809 -150.2049
86.199997 93.841 -151.0331
87.500000 93.871 -151.9091
88.500000 93.895 -152.5520
90.000000 93.933 -153.4846
91.199997 93.965 -154.2243
92.500000 93.996 -155.0261
93.800003 94.022 -155.8210
95.000000 94.043 -156.5410
96.199997 94.063 -157.2533
97.500000 94.086 -158.0296
98.800003 94.109 -158.8185
100.000000 94.127 -159.5590
101.500000 94.142 -160.4527
103.000000 94.156 -161.3075
104.400002 94.169 -162.1082
106.000000 94.179 -163.0047
107.500000 94.188 -163.7966
109.000000 94.196 -164.5598
110.599998 94.203 -165.3437
112.000000 94.206 -166.0318
113.800003 94.202 -166.9449
115.000000 94.193 -167.5493
117.199997 94.174 -168.5996
118.000000 94.170 -168.9700
120.599998 94.155 -170.1573
122.000000 94.144 -170.7747
124.099998 94.125 -171.6679
125.000000 94.117 -172.0525
126.500000 94.101 -172.6985
128.000000 94.081 -173.3283
131.500000 94.033 -174.7363
132.000000 94.025 -174.9259
134.000000 93.992 -175.6520
136.000000 93.958 -176.3649
138.000000 93.922 -177.0832
140.000000 93.883 -177.7918
143.000000 93.826 -178.8184
145.000000 93.786 -179.4638
147.500000 93.735 179.7655
150.000000 93.680 179.0117
152.500000 93.621 178.2890
155.000000 93.566 177.5911
157.500000 93.512 176.9061
160.000000 93.455 176.2494
162.500000 93.395 175.6364
165.000000 93.336 175.0308
167.500000 93.277 174.4176
170.000000 93.219 173.8291
172.500000 93.163 173.2696
175.000000 93.104 172.7462
177.500000 93.044 172.2546
180.000000 92.985 171.7742
182.500000 92.925 171.3054
185.000000 92.863 170.8640
187.500000 92.800 170.4492
190.000000 92.739 170.0516
192.500000 92.678 169.6527
195.000000 92.618 169.2385
197.500000 92.558 168.8188
200.000000 92.498 168.4263
203.000000 92.430 168.0089
206.000000 92.360 167.6255
209.000000 92.288 167.2716
212.000000 92.216 166.9249
214.000000 92.168 166.6963
218.000000 92.072 166.2555
220.000000 92.025 166.0433
224.000000 91.931 165.6321
227.000000 91.859 165.3386
230.000000 91.789 165.0652
233.000000 91.721 164.8082
236.000000 91.654 164.5612
240.000000 91.564 164.2438
243.000000 91.496 164.0185
247.000000 91.408 163.7320
250.000000 91.344 163.5277
254.000000 91.262 163.2767
258.000000 91.179 163.0531
262.000000 91.096 162.8513
265.000000 91.034 162.7086
269.000000 90.950 162.5211
272.000000 90.889 162.3947
276.000000 90.811 162.2499
280.000000 90.732 162.1122
285.000000 90.634 161.9359
290.000000 90.539 161.7701
295.000000 90.449 161.6166
300.000000 90.361 161.4674
304.000000 90.287 161.3607
307.000000 90.232 161.2831
311.000000 90.163 161.1839
315.000000 90.094 161.1023
320.000000 90.006 161.0092
325.000000 89.921 160.9292
330.000000 89.836 160.8723
335.000000 89.749 160.8109
340.000000 89.660 160.7482
345.000000 89.571 160.6870
350.000000 89.478 160.6387
355.000000 89.379 160.6400
360.000000 89.281 160.6938
365.000000 89.186 160.8079
370.000000 89.097 160.9826
375.000000 89.016 161.1898
382.000000 88.917 161.4835
387.000000 88.855 161.6837
395.000000 88.762 161.9624
400.000000 88.710 162.1086
406.000000 88.656 162.2687
412.000000 88.603 162.4306
418.000000 88.548 162.6073
425.000000 88.482 162.8153
431.000000 88.426 162.9947
437.000000 88.370 163.1779
444.000000 88.303 163.4055
450.000000 88.247 163.6032
455.000000 88.201 163.7570
462.000000 88.137 163.9710
468.000000 88.083 164.1640
475.000000 88.022 164.3974
482.000000 87.962 164.6245
487.000000 87.920 164.7861
494.000000 87.863 165.0152
500.000000 87.815 165.2142
508.000000 87.752 165.4778
515.000000 87.698 165.7137
522.000000 87.646 165.9509
530.000000 87.589 166.2146
538.000000 87.532 166.4852
545.000000 87.481 166.7394
552.000000 87.431 166.9983
560.000000 87.373 167.2794
570.000000 87.303 167.6216
580.000000 87.235 167.9594
590.000000 87.172 168.3048
600.000000 87.111 168.6675
608.000000 87.061 168.9573
615.000000 87.019 169.2059
622.000000 86.979 169.4525
630.000000 86.936 169.7292
640.000000 86.885 170.0560
650.000000 86.837 170.3814
660.000000 86.792 170.7224
670.000000 86.746 171.0756
680.000000 86.699 171.4159
690.000000 86.651 171.7464
700.000000 86.604 172.0791
710.000000 86.557 172.4303
720.000000 86.510 172.7879
730.000000 86.463 173.1323
740.000000 86.416 173.4757
750.000000 86.371 173.8251
762.000000 86.318 174.2386
775.000000 86.261 174.6976
788.000000 86.206 175.1645
800.000000 86.154 175.5707
812.000000 86.101 175.9950
825.000000 86.048 176.4927
838.000000 85.995 176.9890
850.000000 85.942 177.4409
862.000000 85.888 177.9140
875.000000 85.833 178.4541
885.000000 85.791 178.8739
900.000000 85.728 179.5125
912.000000 85.680 -179.9570
925.000000 85.631 -179.3715
938.000000 85.584 -178.7790
950.000000 85.541 -178.2401
962.000000 85.499 -177.6964
975.000000 85.455 -177.0696
988.000000 85.414 -176.4101
1000.000000 85.379 -175.8023
1015.000000 85.338 -175.0435
1030.000000 85.304 -174.2633
1044.000000 85.278 -173.5318
1060.000000 85.251 -172.7025
1075.000000 85.231 -171.9316
1090.000000 85.216 -171.1584
1106.000000 85.202 -170.3426
1120.000000 85.193 -169.6358
1138.000000 85.188 -168.7444
1150.000000 85.187 -168.1655
1172.000000 85.184 -167.0908
1180.000000 85.184 -166.6905
1206.000000 85.193 -165.4061
1220.000000 85.202 -164.7244
1241.000000 85.220 -163.7208
1250.000000 85.230 -163.3088
1265.000000 85.247 -162.6385
1280.000000 85.266 -161.9731
1315.000000 85.313 -160.3864
1320.000000 85.321 -160.1625
1340.000000 85.351 -159.2939
1360.000000 85.383 -158.4303
1380.000000 85.422 -157.5815
1400.000000 85.462 -156.8000
1430.000000 85.509 -155.6437
1450.000000 85.542 -154.8311
1475.000000 85.588 -153.8341
1500.000000 85.637 -152.8336
1525.000000 85.697 -151.8368
1550.000000 85.763 -150.8792
1575.000000 85.831 -149.9673
1600.000000 85.897 -149.0524
1625.000000 85.966 -148.1455
1650.000000 86.032 -147.1942
1675.000000 86.104 -146.1694
1700.000000 86.187 -145.1363
1725.000000 86.275 -144.1181
1750.000000 86.370 -143.1096
1775.000000 86.471 -142.1359
1800.000000 86.570 -141.1776
1825.000000 86.679 -140.1867
1850.000000 86.798 -139.2200
1875.000000 86.921 -138.2625
1900.000000 87.050 -137.3172
1925.000000 87.186 -136.3690
1950.000000 87.334 -135.4186
1975.000000 87.492 -134.4985
2000.000000 87.658 -133.6354
2030.000000 87.862 -132.6557
2060.000000 88.079 -131.7314
2090.000000 88.309 -130.8844
2120.000000 88.549 -130.1304
2140.000000 88.711 -129.6876
2180.000000 89.041 -128.9150
2200.000000 89.209 -128.5759
2240.000000 89.552 -127.9369
2270.000000 89.826 -127.5275
2300.000000 90.113 -127.2285
2330.000000 90.411 -127.0878
2360.000000 90.713 -127.1366
2400.000000 91.105 -127.4568
2430.000000 91.391 -127.8118
2470.000000 91.777 -128.4165
2500.000000 92.070 -129.0358
2540.000000 92.456 -130.1152
2580.000000 92.828 -131.4970
2620.000000 93.177 -133.1497
2650.000000 93.422 -134.5573
2690.000000 93.719 -136.6477
2720.000000 93.919 -138.3710
2760.000000 94.143 -140.8782
2800.000000 94.309 -143.5124
2850.000000 94.437 -146.8564
2900.000000 94.495 -150.0354
2950.000000 94.513 -153.1289
3000.000000 94.484 -156.2770
3040.000000 94.404 -158.7834
3070.000000 94.313 -160.5696
3110.000000 94.155 -162.7708
3150.000000 93.967 -164.7205
3200.000000 93.706 -166.8301
3250.000000 93.428 -168.5755
3300.000000 93.146 -170.0268
3350.000000 92.864 -171.2511
3400.000000 92.576 -172.2658
3450.000000 92.287 -173.0471
3500.000000 92.004 -173.6157
3550.000000 91.727 -174.0172
3600.000000 91.456 -174.2403
3650.000000 91.196 -174.2901
3700.000000 90.954 -174.2088
3750.000000 90.728 -174.0630
3820.000000 90.424 -173.7819
3870.000000 90.212 -173.4847
3950.000000 89.893 -172.8163
4000.000000 89.708 -172.2997
4060.000000 89.501 -171.6019
4120.000000 89.308 -170.8313
4180.000000 89.129 -169.9846
4250.000000 88.945 -168.9234
4310.000000 88.809 -168.0024
4370.000000 88.684 -167.0725
4440.000000 88.552 -165.9542
4500.000000 88.453 -164.9617
4550.000000 88.383 -164.1177
4620.000000 88.305 -162.9522
4680.000000 88.250 -161.9737
4750.000000 88.200 -160.8595
4820.000000 88.163 -159.7577
4870.000000 88.149 -158.9633
4940.000000 88.150 -157.8748
5000.000000 88.170 -157.0040
5080.000000 88.213 -155.9710
5150.000000 88.257 -155.1477
5220.000000 88.312 -154.3556
5300.000000 88.399 -153.5202
5380.000000 88.506 -152.8456
5450.000000 88.606 -152.3914
5520.000000 88.712 -152.0082
5600.000000 88.856 -151.6738
5700.000000 89.054 -151.6335
5800.000000 89.243 -151.8762
5900.000000 89.452 -152.2689
6000.000000 89.695 -153.0141
6080.000000 89.899 -153.9603
6150.000000 90.078 -155.0430
6220.000000 90.257 -156.3945
6300.000000 90.453 -158.3475
6400.000000 90.657 -161.4597
6500.000000 90.778 -165.3056
6600.000000 90.770 -169.7587
6700.000000 90.597 -174.4638
6800.000000 90.266 -179.0154
6900.000000 89.802 176.8249
7000.000000 89.226 173.2343
7100.000000 88.569 170.3612
7200.000000 87.870 168.1640
7300.000000 87.144 166.5745
7400.000000 86.404 165.5925
7500.000000 85.669 165.1679
7620.000000 84.808 165.2137
7750.000000 83.890 165.9131
7880.000000 83.001 167.2695
8000.000000 82.204 168.9881
8120.000000 81.410 171.2325
8250.000000 80.547 174.4592
8380.000000 79.686 179.0689
8500.000000 78.994 -174.9184
8620.000000 78.602 -167.3047
8750.000000 78.769 -158.6561
8850.000000 79.296 -153.3763
9000.000000 80.317 -149.5382
9120.000000 80.996 -149.7018
9250.000000 81.445 -151.5145
9380.000000 81.651 -153.6394
9500.000000 81.706 -155.3898
9620.000000 81.682 -156.8460
9750.000000 81.606 -158.1488
9880.000000 81.487 -159.2459
10000.000000 81.336 -160.0006
10150.000000 81.118 -160.4350
10300.000000 80.905 -160.2931
10440.000000 80.721 -159.6556
10600.000000 80.559 -158.0542
10750.000000 80.543 -155.5920
10900.000000 80.776 -152.4099
11060.000000 81.423 -149.0378
11200.000000 82.322 -147.1756
11380.000000 83.751 -147.5809
11500.000000 84.746 -149.8461
11720.000000 86.491 -157.5858
11800.000000 87.095 -161.4141
12060.000000 88.849 -178.1931
12200.000000 89.491 169.6788
12410.000000 89.737 148.7381
12500.000000 89.542 139.6668
12650.000000 88.858 125.7506
12800.000000 87.862 114.0970
13150.000000 85.192 95.0070
13200.000000 84.826 92.9442
13400.000000 83.468 85.6780
13600.000000 82.289 79.4384
13800.000000 81.284 73.6610
14000.000000 80.432 67.9767
14300.000000 79.396 59.1889
14500.000000 78.849 52.9036
14750.000000 78.301 44.3059
15000.000000 77.878 34.7796
15250.000000 77.574 24.2704
15500.000000 77.399 12.5327
15750.000000 77.353 -0.6925
16000.000000 77.439 -15.7285
16250.000000 77.631 -33.0362
16500.000000 77.864 -52.8700
16750.000000 78.125 -75.1768
17000.000000 78.464 -100.2539
17250.000000 78.885 -129.1567
17500.000000 79.226 -163.1362
17750.000000 79.205 157.5677
18000.000000 78.616 114.5519
18250.000000 77.500 69.9036
18500.000000 76.094 24.0913
18750.000000 74.637 -24.2220
19000.000000 73.244 -77.2065
19250.000000 71.873 -137.1003
19500.000000 70.375 155.2944
19750.000000 68.702 86.9951
