* Measurement data measured by REW V5.20.9
* Source: Headset (USB-C to 3.5mm Headphone Jack Adapter), MICROPHONE (Master Volume), R, volume: 0.800. Timing signal peak level -21.6 dBFS, measurement signal peak level -18.1 dBFS
* Format: 256k Log Swept Sine, 1 sweep at -12.0 dBFS using an acoustic timing reference
* Dated: 13/07/2022 8:54:48 PM
* REW Settings:
*  C-weighting compensation: Off
*  Target level: 75.0 dB
* Note: ; Delay -0.0414 ms (-14 mm, -0.56 in) using estimated IR delay relative to Acoustic reference on  L with no timing offset
* Measurement: FH3 L
* Smoothing: 1/24 octave
* Frequency Step: 1/48 octave
* Start Frequency: 1.000 Hz
*
* Freq(Hz) SPL(dB) Phase(degrees)
1.000000 84.568 -12.4092
1.015000 84.743 -13.3932
1.030000 84.914 -14.3626
1.044000 85.072 -15.2516
1.060000 85.249 -16.2460
1.075000 85.412 -17.1545
1.090000 85.571 -18.0372
1.106000 85.737 -18.9491
1.120000 85.880 -19.7316
1.138000 86.058 -20.7208
1.150000 86.175 -21.3704
1.172000 86.385 -22.5423
1.180000 86.459 -22.9628
1.206000 86.697 -24.3108
1.220000 86.822 -25.0259
1.241000 87.005 -26.0863
1.250000 87.082 -26.5368
1.265000 87.209 -27.2829
1.280000 87.335 -28.0240
1.315000 87.620 -29.7385
1.320000 87.660 -29.9821
1.340000 87.818 -30.9551
1.360000 87.974 -31.9266
1.380000 88.128 -32.8987
1.400000 88.281 -33.8734
1.430000 88.506 -35.3449
1.450000 88.656 -36.3350
1.475000 88.841 -37.5860
1.500000 89.022 -38.8475
1.525000 89.200 -40.1162
1.550000 89.373 -41.3895
1.575000 89.543 -42.6647
1.600000 89.710 -43.9394
1.625000 89.872 -45.2110
1.650000 90.031 -46.4770
1.675000 90.187 -47.7348
1.700000 90.340 -48.9818
1.725000 90.489 -50.2155
1.750000 90.635 -51.4334
1.775000 90.778 -52.6328
1.800000 90.919 -53.8113
1.825000 91.056 -54.9663
1.850000 91.191 -56.0977
1.875000 91.322 -57.2109
1.900000 91.449 -58.3069
1.925000 91.572 -59.3867
1.950000 91.692 -60.4513
1.975000 91.810 -61.5016
2.000000 91.924 -62.5384
2.030000 92.057 -63.7662
2.060000 92.186 -64.9777
2.090000 92.312 -66.1743
2.120000 92.435 -67.3579
2.140000 92.515 -68.1404
2.180000 92.672 -69.6919
2.200000 92.749 -70.4619
2.240000 92.897 -71.9869
2.270000 93.004 -73.1158
2.300000 93.107 -74.2316
2.330000 93.207 -75.3337
2.360000 93.303 -76.4217
2.400000 93.427 -77.8496
2.430000 93.517 -78.9029
2.470000 93.633 -80.2829
2.500000 93.717 -81.2990
2.540000 93.827 -82.6278
2.580000 93.934 -83.9260
2.620000 94.035 -85.1953
2.650000 94.108 -86.1288
2.690000 94.201 -87.3487
2.720000 94.268 -88.2452
2.760000 94.354 -89.4160
2.800000 94.437 -90.5589
2.850000 94.538 -91.9485
2.900000 94.636 -93.2949
2.950000 94.731 -94.5971
3.000000 94.822 -95.8464
3.040000 94.892 -96.8098
3.070000 94.942 -97.5133
3.110000 95.008 -98.4285
3.150000 95.071 -99.3205
3.200000 95.149 -100.4077
3.250000 95.226 -101.4695
3.300000 95.303 -102.5121
3.350000 95.380 -103.5274
3.400000 95.454 -104.5096
3.450000 95.527 -105.4620
3.500000 95.598 -106.3881
3.550000 95.669 -107.2915
3.600000 95.740 -108.1757
3.650000 95.811 -109.0441
3.700000 95.883 -109.8935
3.750000 95.954 -110.7126
3.820000 96.053 -111.8198
3.870000 96.124 -112.5914
3.950000 96.236 -113.8105
4.000000 96.304 -114.5731
4.060000 96.386 -115.4962
4.120000 96.468 -116.4150
4.180000 96.549 -117.3278
4.250000 96.641 -118.3861
4.310000 96.718 -119.2885
4.370000 96.792 -120.1873
4.440000 96.874 -121.2327
4.500000 96.942 -122.1263
4.550000 96.997 -122.8683
4.620000 97.070 -123.9012
4.680000 97.128 -124.7797
4.750000 97.191 -125.7944
4.820000 97.248 -126.8029
4.870000 97.285 -127.5232
4.940000 97.333 -128.5243
5.000000 97.369 -129.3689
5.080000 97.411 -130.4647
5.150000 97.443 -131.3862
5.220000 97.468 -132.2847
5.300000 97.489 -133.2823
5.380000 97.504 -134.2390
5.450000 97.514 -135.0343
5.520000 97.522 -135.7844
5.600000 97.524 -136.5931
5.700000 97.520 -137.5334
5.800000 97.514 -138.3938
5.900000 97.510 -139.1705
6.000000 97.504 -139.8537
6.080000 97.498 -140.3440
6.150000 97.496 -140.7418
6.220000 97.497 -141.1185
6.300000 97.502 -141.5143
6.400000 97.512 -141.9480
6.500000 97.528 -142.3467
6.600000 97.549 -142.7456
6.700000 97.579 -143.1357
6.800000 97.615 -143.5121
6.900000 97.654 -143.8995
7.000000 97.695 -144.3193
7.100000 97.741 -144.7609
7.200000 97.788 -145.2232
7.300000 97.833 -145.7098
7.400000 97.875 -146.2268
7.500000 97.916 -146.7742
7.620000 97.961 -147.4525
7.750000 98.001 -148.1942
7.880000 98.032 -148.9575
8.000000 98.054 -149.6574
8.120000 98.069 -150.3295
8.250000 98.078 -151.0399
8.380000 98.080 -151.7165
8.500000 98.080 -152.2962
8.620000 98.076 -152.8382
8.750000 98.071 -153.3868
8.850000 98.069 -153.7817
9.000000 98.065 -154.3244
9.120000 98.065 -154.7343
9.250000 98.069 -155.1643
9.380000 98.077 -155.5727
9.500000 98.087 -155.9502
9.620000 98.100 -156.3366
9.750000 98.117 -156.7582
9.880000 98.137 -157.1958
10.000000 98.155 -157.6196
10.150000 98.180 -158.1705
10.300000 98.203 -158.7451
10.440000 98.223 -159.3058
10.600000 98.243 -159.9637
10.750000 98.257 -160.5917
10.900000 98.268 -161.2293
11.060000 98.275 -161.9014
11.200000 98.277 -162.4859
11.380000 98.275 -163.2162
11.500000 98.271 -163.6871
11.720000 98.261 -164.5140
11.800000 98.257 -164.7999
12.060000 98.241 -165.6800
12.200000 98.233 -166.1230
12.410000 98.222 -166.7507
12.500000 98.218 -167.0106
12.650000 98.214 -167.4288
12.800000 98.211 -167.8362
13.150000 98.209 -168.7622
13.200000 98.209 -168.8929
13.400000 98.210 -169.4127
13.600000 98.211 -169.9254
13.800000 98.211 -170.4314
14.000000 98.211 -170.9236
14.300000 98.208 -171.6335
14.500000 98.207 -172.0841
14.750000 98.205 -172.6288
15.000000 98.204 -173.1573
15.250000 98.204 -173.6830
15.500000 98.203 -174.2114
15.750000 98.199 -174.7427
16.000000 98.190 -175.2716
16.250000 98.176 -175.7813
16.500000 98.157 -176.2615
16.750000 98.135 -176.6978
17.000000 98.113 -177.0880
17.250000 98.095 -177.4390
17.500000 98.081 -177.7611
17.750000 98.075 -178.0820
18.000000 98.074 -178.4191
18.250000 98.078 -178.7912
18.500000 98.084 -179.2139
18.750000 98.088 -179.6842
19.000000 98.087 179.8010
19.250000 98.080 179.2634
19.500000 98.065 178.7250
19.750000 98.042 178.2039
20.000000 98.016 177.7244
20.299999 97.982 177.2093
20.600000 97.952 176.7535
20.900000 97.929 176.3350
21.200001 97.913 175.9221
21.400000 97.905 175.6370
21.799999 97.891 175.0436
22.000000 97.882 174.7415
22.400000 97.862 174.1521
22.700001 97.844 173.7388
23.000000 97.827 173.3510
23.299999 97.810 172.9762
23.600000 97.793 172.6091
24.000000 97.764 172.1414
24.299999 97.738 171.8292
24.700001 97.703 171.4845
25.000000 97.682 171.2632
25.400000 97.662 170.9553
25.799999 97.645 170.5583
26.200001 97.614 170.0743
26.500000 97.576 169.7111
26.900000 97.513 169.3032
27.200001 97.467 169.0638
27.600000 97.416 168.7651
28.000000 97.375 168.3730
28.500000 97.307 167.7332
29.000000 97.214 167.1896
29.500000 97.145 166.8992
30.000000 97.154 166.4617
30.400000 97.188 165.5885
30.700001 97.185 164.5773
31.100000 97.092 163.0721
31.500000 96.896 161.9438
32.000000 96.603 161.7698
32.500000 96.448 162.7529
33.000000 96.513 163.6345
33.500000 96.670 163.4997
34.000000 96.753 162.5965
34.500000 96.733 161.7994
35.000000 96.688 161.5145
35.500000 96.684 161.4775
36.000000 96.705 161.3125
36.500000 96.708 161.0027
37.000000 96.685 160.7240
37.500000 96.651 160.4991
38.200001 96.576 160.1150
38.700001 96.478 159.9172
39.500000 96.309 160.2517
40.000000 96.266 160.6510
40.599998 96.274 160.7625
41.200001 96.262 160.3838
41.799999 96.201 160.0004
42.500000 96.150 159.8843
43.099998 96.173 159.6383
43.700001 96.199 158.9492
44.400002 96.171 158.0030
45.000000 96.137 157.3942
45.500000 96.128 156.8268
46.200001 96.081 155.7221
46.799999 95.957 154.9469
47.500000 95.805 154.8123
48.200001 95.749 154.8738
48.700001 95.726 154.6322
49.400002 95.635 154.2493
50.000000 95.548 154.3271
50.799999 95.524 154.5514
51.500000 95.533 154.2820
52.200001 95.501 153.8559
53.000000 95.450 153.5101
53.799999 95.406 153.1346
54.500000 95.356 152.8013
55.200001 95.305 152.5132
56.000000 95.244 152.1559
57.000000 95.151 151.7837
58.000000 95.066 151.5164
59.000000 94.982 151.2604
60.000000 94.909 151.0697
60.799999 94.860 150.8336
61.500000 94.809 150.5691
62.200001 94.749 150.3108
63.000000 94.671 150.0546
64.000000 94.571 149.8450
65.000000 94.488 149.7189
66.000000 94.426 149.5587
67.000000 94.375 149.2844
68.000000 94.307 148.9199
69.000000 94.221 148.7445
70.000000 94.156 148.7124
71.000000 94.100 148.5886
72.000000 94.027 148.4142
73.000000 93.942 148.3088
74.000000 93.866 148.2222
75.000000 93.790 148.0425
76.199997 93.697 147.9008
77.500000 93.607 147.6970
78.800003 93.474 147.7426
80.000000 93.368 148.3621
81.199997 93.348 148.9410
82.500000 93.264 148.8335
83.800003 93.095 149.0997
85.000000 92.998 149.1729
86.199997 92.909 148.6651
87.500000 92.748 147.7930
88.500000 92.603 147.6693
90.000000 92.550 147.9748
91.199997 92.570 148.0349
92.500000 92.614 147.9290
93.800003 92.575 147.3910
95.000000 92.434 147.2973
96.199997 92.345 147.6979
97.500000 92.357 147.6381
98.800003 92.355 146.8912
100.000000 92.295 146.2817
101.500000 92.214 146.2312
103.000000 92.175 146.5046
104.400002 92.129 146.7597
106.000000 92.067 146.9145
107.500000 91.995 146.7551
109.000000 91.906 146.5285
110.599998 91.822 146.4527
112.000000 91.766 146.5012
113.800003 91.693 146.5851
115.000000 91.631 146.6498
117.199997 91.516 146.8380
118.000000 91.480 146.8856
120.599998 91.359 146.9210
122.000000 91.282 146.9897
124.099998 91.174 147.2337
125.000000 91.137 147.3395
126.500000 91.073 147.4709
128.000000 90.997 147.5645
131.500000 90.728 147.8373
132.000000 90.694 147.9575
134.000000 90.640 148.3285
136.000000 90.633 148.2943
138.000000 90.608 148.4367
140.000000 90.575 148.7763
143.000000 90.506 149.2258
145.000000 90.458 149.4415
147.500000 90.387 149.6421
150.000000 90.333 149.9563
152.500000 90.342 149.9112
155.000000 90.330 149.6631
157.500000 90.280 149.5046
160.000000 90.198 149.4275
162.500000 90.120 149.4622
165.000000 90.054 149.6022
167.500000 89.982 149.6491
170.000000 89.892 149.5792
172.500000 89.809 149.5578
175.000000 89.733 149.6381
177.500000 89.651 149.7528
180.000000 89.569 149.8566
182.500000 89.504 150.0004
185.000000 89.449 150.1770
187.500000 89.391 150.3561
190.000000 89.334 150.4997
192.500000 89.282 150.5942
195.000000 89.224 150.6816
197.500000 89.154 150.8251
200.000000 89.088 150.9778
203.000000 89.018 151.0562
206.000000 88.945 151.1460
209.000000 88.869 151.3029
212.000000 88.790 151.4797
214.000000 88.738 151.6017
218.000000 88.641 151.8729
220.000000 88.594 152.0193
224.000000 88.502 152.3252
227.000000 88.437 152.5861
230.000000 88.374 152.8968
233.000000 88.313 153.1748
236.000000 88.254 153.3823
240.000000 88.181 153.6707
243.000000 88.128 153.8810
247.000000 88.064 154.0602
250.000000 88.016 154.2118
254.000000 87.945 154.5784
258.000000 87.873 154.8950
262.000000 87.799 155.1401
265.000000 87.743 155.3375
269.000000 87.681 155.5971
272.000000 87.637 155.7800
276.000000 87.573 156.0224
280.000000 87.507 156.2625
285.000000 87.424 156.5617
290.000000 87.336 156.8611
295.000000 87.249 157.2059
300.000000 87.163 157.5513
304.000000 87.100 157.8131
307.000000 87.054 158.0104
311.000000 86.991 158.2755
315.000000 86.926 158.5460
320.000000 86.845 158.9041
325.000000 86.767 159.2484
330.000000 86.691 159.5859
335.000000 86.613 159.9469
340.000000 86.534 160.3277
345.000000 86.457 160.7097
350.000000 86.380 161.0836
355.000000 86.296 161.4794
360.000000 86.213 161.8740
365.000000 86.133 162.2674
370.000000 86.053 162.6657
375.000000 85.973 163.0788
382.000000 85.862 163.6897
387.000000 85.781 164.1414
395.000000 85.650 164.8775
400.000000 85.568 165.3774
406.000000 85.472 166.0212
412.000000 85.378 166.6812
418.000000 85.283 167.3787
425.000000 85.176 168.2296
431.000000 85.089 168.9528
437.000000 85.006 169.6874
444.000000 84.906 170.6190
450.000000 84.816 171.4552
455.000000 84.758 172.1056
462.000000 84.682 173.0386
468.000000 84.614 173.8967
475.000000 84.537 174.9382
482.000000 84.464 176.0259
487.000000 84.416 176.8236
494.000000 84.358 177.9601
500.000000 84.314 178.9631
508.000000 84.261 -179.6692
515.000000 84.221 -178.4646
522.000000 84.191 -177.2444
530.000000 84.171 -175.8137
538.000000 84.167 -174.3661
545.000000 84.176 -173.1094
552.000000 84.194 -171.8643
560.000000 84.219 -170.4786
570.000000 84.267 -168.7810
580.000000 84.337 -167.1655
590.000000 84.424 -165.6221
600.000000 84.527 -164.1877
608.000000 84.613 -163.1044
615.000000 84.691 -162.1970
622.000000 84.775 -161.3365
630.000000 84.878 -160.4178
640.000000 85.012 -159.3685
650.000000 85.147 -158.4019
660.000000 85.267 -157.4973
670.000000 85.390 -156.6669
680.000000 85.514 -155.9077
690.000000 85.635 -155.2159
700.000000 85.754 -154.5833
710.000000 85.873 -153.9844
720.000000 85.990 -153.4184
730.000000 86.099 -152.8867
740.000000 86.199 -152.3803
750.000000 86.299 -151.8995
762.000000 86.428 -151.3645
775.000000 86.562 -150.8188
788.000000 86.691 -150.3040
800.000000 86.806 -149.8492
812.000000 86.920 -149.4087
825.000000 87.044 -148.9411
838.000000 87.163 -148.5005
850.000000 87.272 -148.1334
862.000000 87.385 -147.7798
875.000000 87.506 -147.4023
885.000000 87.598 -147.1248
900.000000 87.740 -146.7434
912.000000 87.853 -146.4664
925.000000 87.975 -146.1919
938.000000 88.097 -145.9628
950.000000 88.210 -145.7854
962.000000 88.323 -145.6125
975.000000 88.445 -145.4558
988.000000 88.565 -145.3523
1000.000000 88.676 -145.2924
1015.000000 88.813 -145.2539
1030.000000 88.947 -145.2605
1044.000000 89.070 -145.3046
1060.000000 89.206 -145.4269
1075.000000 89.329 -145.6007
1090.000000 89.447 -145.8141
1106.000000 89.567 -146.0853
1120.000000 89.665 -146.3622
1138.000000 89.784 -146.7704
1150.000000 89.857 -147.0742
1172.000000 89.981 -147.6990
1180.000000 90.022 -147.9446
1206.000000 90.136 -148.7788
1220.000000 90.185 -149.2437
1241.000000 90.243 -149.9595
1250.000000 90.261 -150.2715
1265.000000 90.284 -150.7897
1280.000000 90.296 -151.2990
1315.000000 90.288 -152.3961
1320.000000 90.283 -152.5396
1340.000000 90.255 -153.0811
1360.000000 90.218 -153.5748
1380.000000 90.170 -154.0320
1400.000000 90.111 -154.4349
1430.000000 89.995 -154.8753
1450.000000 89.904 -155.0367
1475.000000 89.782 -155.0592
1500.000000 89.656 -154.8919
1525.000000 89.529 -154.5410
1550.000000 89.408 -154.0178
1575.000000 89.301 -153.3333
1600.000000 89.208 -152.5098
1625.000000 89.132 -151.5695
1650.000000 89.074 -150.5310
1675.000000 89.035 -149.4127
1700.000000 89.019 -148.2328
1725.000000 89.024 -147.0143
1750.000000 89.050 -145.7789
1775.000000 89.099 -144.5476
1800.000000 89.170 -143.3347
1825.000000 89.264 -142.1540
1850.000000 89.379 -141.0264
1875.000000 89.512 -139.9703
1900.000000 89.662 -138.9969
1925.000000 89.829 -138.1175
1950.000000 90.012 -137.3430
1975.000000 90.206 -136.6862
2000.000000 90.413 -136.1655
2030.000000 90.675 -135.7241
2060.000000 90.947 -135.5008
2090.000000 91.224 -135.5144
2120.000000 91.503 -135.7797
2140.000000 91.685 -136.0991
2180.000000 92.037 -137.0815
2200.000000 92.202 -137.7467
2240.000000 92.499 -139.3940
2270.000000 92.686 -140.8816
2300.000000 92.834 -142.5342
2330.000000 92.940 -144.2930
2360.000000 93.005 -146.1130
2400.000000 93.036 -148.5648
2430.000000 93.019 -150.3995
2470.000000 92.942 -152.8418
2500.000000 92.841 -154.6490
2540.000000 92.643 -156.9354
2580.000000 92.379 -158.9445
2620.000000 92.061 -160.5681
2650.000000 91.798 -161.5016
2690.000000 91.429 -162.3677
2720.000000 91.147 -162.7386
2760.000000 90.771 -162.8766
2800.000000 90.406 -162.6364
2850.000000 89.976 -161.8783
2900.000000 89.585 -160.7068
2950.000000 89.243 -159.2000
3000.000000 88.952 -157.4366
3040.000000 88.754 -155.8948
3070.000000 88.627 -154.6765
3110.000000 88.487 -152.9959
3150.000000 88.382 -151.2840
3200.000000 88.296 -149.1459
3250.000000 88.259 -147.0902
3300.000000 88.262 -145.1562
3350.000000 88.299 -143.3619
3400.000000 88.364 -141.7191
3450.000000 88.453 -140.2356
3500.000000 88.563 -138.9490
3550.000000 88.689 -137.8885
3600.000000 88.825 -137.0490
3650.000000 88.964 -136.4445
3700.000000 89.096 -136.0943
3750.000000 89.212 -135.9857
3820.000000 89.330 -136.1695
3870.000000 89.373 -136.4716
3950.000000 89.356 -137.0179
4000.000000 89.295 -137.2517
4060.000000 89.179 -137.2798
4120.000000 89.037 -136.9430
4180.000000 88.893 -136.1958
4250.000000 88.762 -134.8516
4310.000000 88.708 -133.4512
4370.000000 88.717 -132.0428
4440.000000 88.797 -130.6951
4500.000000 88.888 -129.9702
4550.000000 88.940 -129.6774
4620.000000 88.924 -129.4850
4680.000000 88.807 -129.0511
4750.000000 88.596 -127.5274
4820.000000 88.430 -124.5233
4870.000000 88.429 -121.6102
4940.000000 88.676 -117.0833
5000.000000 89.127 -113.4382
5080.000000 90.006 -109.7678
5150.000000 90.945 -108.1580
5220.000000 91.954 -108.3209
5300.000000 93.076 -110.8819
5380.000000 94.029 -115.9568
5450.000000 94.614 -122.0537
5520.000000 94.908 -128.9431
5600.000000 94.892 -136.6617
5700.000000 94.484 -144.6571
5800.000000 93.885 -150.3943
5900.000000 93.278 -154.6035
6000.000000 92.688 -158.2878
6080.000000 92.163 -161.1331
6150.000000 91.616 -163.3343
6220.000000 90.974 -164.8781
6300.000000 90.164 -165.4104
6400.000000 89.159 -164.0271
6500.000000 88.317 -160.7903
6600.000000 87.725 -156.4520
6700.000000 87.388 -151.6625
6800.000000 87.283 -146.8466
6900.000000 87.393 -142.2554
7000.000000 87.698 -138.0976
7100.000000 88.185 -134.5702
7200.000000 88.848 -131.9121
7300.000000 89.676 -130.4539
7400.000000 90.634 -130.6474
7500.000000 91.640 -133.0390
7620.000000 92.710 -139.3700
7750.000000 93.389 -150.0611
7880.000000 93.353 -162.5735
8000.000000 92.664 -173.1371
8120.000000 91.500 179.2635
8250.000000 90.012 174.9552
8380.000000 88.569 173.8818
8500.000000 87.396 174.7691
8620.000000 86.403 176.7591
8750.000000 85.521 179.6672
8850.000000 84.961 -177.7414
9000.000000 84.302 -173.2971
9120.000000 83.988 -169.5362
9250.000000 83.837 -166.0799
9380.000000 83.792 -163.1748
9500.000000 83.846 -160.9004
9620.000000 83.991 -159.2304
9750.000000 84.229 -158.3811
9880.000000 84.500 -158.7895
10000.000000 84.705 -160.4003
10150.000000 84.786 -163.7921
10300.000000 84.588 -167.7382
10440.000000 84.184 -170.8425
10600.000000 83.617 -173.1291
10750.000000 83.131 -174.4570
10900.000000 82.738 -175.8856
11060.000000 82.339 -178.3610
11200.000000 81.859 178.6552
11380.000000 80.904 175.2935
11500.000000 80.107 174.4256
11720.000000 78.695 175.7324
11800.000000 78.262 176.7102
12060.000000 77.117 -179.8287
12200.000000 76.604 -178.0039
12410.000000 75.918 -175.2780
12500.000000 75.648 -174.0807
12650.000000 75.230 -172.0276
12800.000000 74.860 -169.9136
13150.000000 74.199 -164.7621
13200.000000 74.130 -164.0146
13400.000000 73.937 -161.0319
13600.000000 73.889 -158.1144
13800.000000 74.020 -155.4400
14000.000000 74.370 -153.2744
14300.000000 75.429 -151.7487
14500.000000 76.572 -152.9335
14750.000000 78.429 -159.4158
15000.000000 80.166 -175.4542
15250.000000 80.699 158.8724
15500.000000 79.527 133.6279
15750.000000 77.399 117.2820
16000.000000 75.670 106.9044
16250.000000 74.988 94.0362
16500.000000 74.463 72.9176
16750.000000 72.917 47.8403
17000.000000 70.110 28.5761
17250.000000 66.777 18.7947
17500.000000 64.136 13.9998
17750.000000 62.700 8.9789
18000.000000 62.182 1.2478
18250.000000 62.309 -9.7597
18500.000000 62.971 -24.4028
18750.000000 64.118 -43.5814
19000.000000 65.622 -68.9579
