* Measurement data measured by REW V5.20.9
* Source: USB-C to 3.5mm Headphone Jack Adapter, USB-C to 3.5mm Headphone Jack Adapter, 0, volume: 0.138
* Format: 256k Log Swept Sine, 1 sweep at -12.0 dBFS with no timing reference
* Dated: 15/07/2022 8:02:49 PM
* REW Settings:
*  C-weighting compensation: Off
*  Target level: 75.0 dB
* Note: ; 
* Measurement: IE900 Fake R
* Smoothing: 1/24 octave
* Frequency Step: 1/48 octave
* Start Frequency: 1.000 Hz
*
* Freq(Hz) SPL(dB) Phase(degrees)
1.000000 86.434 -26.0845
1.015000 86.673 -27.2666
1.030000 86.906 -28.3305
1.044000 87.117 -29.2219
1.060000 87.354 -30.1309
1.075000 87.569 -30.8864
1.090000 87.780 -31.5579
1.106000 87.999 -32.1924
1.120000 88.186 -32.6870
1.138000 88.422 -33.2529
1.150000 88.575 -33.5937
1.172000 88.850 -34.1610
1.180000 88.948 -34.3535
1.206000 89.260 -34.9514
1.220000 89.425 -35.2684
1.241000 89.667 -35.7581
1.250000 89.769 -35.9788
1.265000 89.938 -36.3685
1.280000 90.104 -36.7939
1.315000 90.487 -37.9779
1.320000 90.541 -38.1740
1.340000 90.756 -39.0401
1.360000 90.969 -40.0335
1.380000 91.176 -41.1055
1.400000 91.377 -42.2436
1.430000 91.670 -44.0532
1.450000 91.859 -45.3139
1.475000 92.089 -46.9338
1.500000 92.313 -48.5850
1.525000 92.530 -50.2486
1.550000 92.741 -51.9056
1.575000 92.948 -53.5372
1.600000 93.149 -55.1245
1.625000 93.346 -56.6485
1.650000 93.540 -58.0904
1.675000 93.730 -59.4312
1.700000 93.917 -60.6648
1.725000 94.097 -61.8220
1.750000 94.272 -62.9136
1.775000 94.442 -63.9485
1.800000 94.607 -64.9357
1.825000 94.767 -65.8843
1.850000 94.922 -66.8033
1.875000 95.074 -67.7015
1.900000 95.221 -68.5882
1.925000 95.365 -69.4722
1.950000 95.506 -70.3626
1.975000 95.643 -71.2683
2.000000 95.779 -72.1984
2.030000 95.938 -73.3560
2.060000 96.091 -74.5336
2.090000 96.239 -75.7196
2.120000 96.381 -76.9103
2.140000 96.472 -77.7048
2.180000 96.650 -79.2908
2.200000 96.735 -80.0800
2.240000 96.901 -81.6454
2.270000 97.022 -82.8038
2.300000 97.138 -83.9445
2.330000 97.252 -85.0639
2.360000 97.364 -86.1586
2.400000 97.506 -87.5948
2.430000 97.608 -88.6593
2.470000 97.737 -90.0589
2.500000 97.830 -91.0919
2.540000 97.949 -92.4445
2.580000 98.063 -93.7657
2.620000 98.172 -95.0520
2.650000 98.251 -95.9918
2.690000 98.354 -97.2091
2.720000 98.429 -98.0901
2.760000 98.524 -99.2185
2.800000 98.613 -100.3022
2.850000 98.719 -101.6077
2.900000 98.818 -102.8752
2.950000 98.913 -104.1222
3.000000 99.004 -105.3664
3.040000 99.076 -106.3712
3.070000 99.127 -107.1309
3.110000 99.192 -108.1460
3.150000 99.254 -109.1569
3.200000 99.328 -110.4040
3.250000 99.398 -111.6196
3.300000 99.466 -112.7899
3.350000 99.533 -113.9010
3.400000 99.598 -114.9388
3.450000 99.660 -115.9042
3.500000 99.719 -116.8143
3.550000 99.776 -117.6866
3.600000 99.832 -118.5385
3.650000 99.886 -119.3877
3.700000 99.940 -120.2517
3.750000 99.993 -121.1319
3.820000 100.066 -122.3645
3.870000 100.116 -123.2369
3.950000 100.194 -124.6019
4.000000 100.242 -125.4264
4.060000 100.299 -126.3762
4.120000 100.354 -127.2787
4.180000 100.409 -128.1452
4.250000 100.471 -129.1288
4.310000 100.523 -129.9639
4.370000 100.573 -130.8058
4.440000 100.630 -131.8005
4.500000 100.677 -132.6527
4.550000 100.715 -133.3592
4.620000 100.767 -134.3376
4.680000 100.809 -135.1614
4.750000 100.856 -136.1008
4.820000 100.900 -137.0211
4.870000 100.930 -137.6682
4.940000 100.970 -138.5607
5.000000 101.003 -139.3145
5.080000 101.043 -140.3052
5.150000 101.076 -141.1585
5.220000 101.106 -141.9979
5.300000 101.138 -142.9382
5.380000 101.167 -143.8562
5.450000 101.191 -144.6412
5.520000 101.213 -145.4101
5.600000 101.236 -146.2684
5.700000 101.263 -147.3088
5.800000 101.288 -148.3091
5.900000 101.311 -149.2698
6.000000 101.332 -150.2022
6.080000 101.349 -150.9349
6.150000 101.364 -151.5638
6.220000 101.378 -152.1808
6.300000 101.394 -152.8734
6.400000 101.414 -153.7237
6.500000 101.434 -154.5533
6.600000 101.453 -155.3641
6.700000 101.472 -156.1648
6.800000 101.490 -156.9615
6.900000 101.507 -157.7502
7.000000 101.523 -158.5301
7.100000 101.537 -159.3005
7.200000 101.550 -160.0621
7.300000 101.561 -160.8142
7.400000 101.571 -161.5560
7.500000 101.579 -162.2881
7.620000 101.585 -163.1533
7.750000 101.591 -164.0695
7.880000 101.593 -164.9624
8.000000 101.593 -165.7668
8.120000 101.592 -166.5515
8.250000 101.589 -167.3781
8.380000 101.585 -168.1841
8.500000 101.581 -168.9117
8.620000 101.576 -169.6225
8.750000 101.570 -170.3779
8.850000 101.565 -170.9491
9.000000 101.556 -171.7898
9.120000 101.549 -172.4523
9.250000 101.540 -173.1600
9.380000 101.530 -173.8567
9.500000 101.519 -174.4901
9.620000 101.508 -175.1143
9.750000 101.495 -175.7792
9.880000 101.480 -176.4321
10.000000 101.466 -177.0242
10.150000 101.447 -177.7482
10.300000 101.427 -178.4543
10.440000 101.407 -179.0984
10.600000 101.385 -179.8169
10.750000 101.363 179.5248
10.900000 101.341 178.8797
11.060000 101.317 178.2053
11.200000 101.296 177.6236
11.380000 101.269 176.8879
11.500000 101.251 176.4033
11.720000 101.216 175.5274
11.800000 101.204 175.2128
12.060000 101.160 174.2047
12.200000 101.136 173.6723
12.410000 101.098 172.8877
12.500000 101.081 172.5575
12.650000 101.053 172.0148
12.800000 101.023 171.4825
13.150000 100.954 170.2813
13.200000 100.944 170.1143
13.400000 100.903 169.4576
13.600000 100.862 168.8174
13.800000 100.822 168.1927
14.000000 100.781 167.5818
14.300000 100.720 166.6881
14.500000 100.679 166.1060
14.750000 100.628 165.3923
15.000000 100.577 164.6939
15.250000 100.525 164.0114
15.500000 100.472 163.3458
15.750000 100.418 162.6980
16.000000 100.365 162.0685
16.250000 100.311 161.4568
16.500000 100.257 160.8617
16.750000 100.203 160.2816
17.000000 100.149 159.7144
17.250000 100.095 159.1592
17.500000 100.041 158.6153
17.750000 99.987 158.0826
18.000000 99.933 157.5615
18.250000 99.878 157.0523
18.500000 99.823 156.5552
18.750000 99.767 156.0699
19.000000 99.712 155.5957
19.250000 99.657 155.1319
19.500000 99.602 154.6777
19.750000 99.547 154.2324
20.000000 99.492 153.7953
20.299999 99.425 153.2817
20.600000 99.359 152.7798
20.900000 99.293 152.2897
21.200001 99.227 151.8115
21.400000 99.183 151.4993
21.799999 99.096 150.8894
22.000000 99.053 150.5913
22.400000 98.966 150.0081
22.700001 98.901 149.5825
23.000000 98.837 149.1678
23.299999 98.772 148.7647
23.600000 98.708 148.3726
24.000000 98.624 147.8640
24.299999 98.561 147.4905
24.700001 98.477 147.0031
25.000000 98.414 146.6498
25.400000 98.328 146.2033
25.799999 98.244 145.7875
26.200001 98.163 145.3900
26.500000 98.105 145.0907
26.900000 98.027 144.6793
27.200001 97.966 144.3656
27.600000 97.881 143.9640
28.000000 97.793 143.6063
28.500000 97.688 143.2215
29.000000 97.592 142.8420
29.500000 97.499 142.4149
30.000000 97.397 141.9847
30.400000 97.311 141.7003
30.700001 97.249 141.5331
31.100000 97.179 141.3389
31.500000 97.123 141.1053
32.000000 97.059 140.6782
32.500000 96.979 140.1382
33.000000 96.879 139.6365
33.500000 96.771 139.2713
34.000000 96.675 138.9993
34.500000 96.592 138.7188
35.000000 96.509 138.3959
35.500000 96.419 138.0837
36.000000 96.326 137.8361
36.500000 96.239 137.6431
37.000000 96.158 137.4569
37.500000 96.079 137.2551
38.200001 95.963 136.9861
38.700001 95.880 136.8304
39.500000 95.756 136.6113
40.000000 95.683 136.4550
40.599998 95.596 136.2310
41.200001 95.506 135.9807
41.799999 95.412 135.7278
42.500000 95.301 135.4518
43.099998 95.208 135.2397
43.700001 95.119 135.0495
44.400002 95.022 134.8344
45.000000 94.943 134.6399
45.500000 94.877 134.4810
46.200001 94.785 134.2829
46.799999 94.708 134.1196
47.500000 94.611 133.9393
48.200001 94.506 133.8782
48.700001 94.440 133.9299
49.400002 94.374 133.9682
50.000000 94.324 133.8306
50.799999 94.226 133.5271
51.500000 94.124 133.3661
52.200001 94.032 133.2522
53.000000 93.930 133.0435
53.799999 93.820 132.8463
54.500000 93.728 132.7242
55.200001 93.644 132.5983
56.000000 93.549 132.4643
57.000000 93.440 132.3242
58.000000 93.331 132.1541
59.000000 93.215 132.0400
60.000000 93.101 131.9652
60.799999 93.009 131.9090
61.500000 92.928 131.8808
62.200001 92.853 131.8505
63.000000 92.769 131.7794
64.000000 92.661 131.6672
65.000000 92.553 131.5873
66.000000 92.449 131.5356
67.000000 92.351 131.4933
68.000000 92.254 131.4557
69.000000 92.160 131.4216
70.000000 92.068 131.3852
71.000000 91.976 131.3447
72.000000 91.883 131.3145
73.000000 91.791 131.3183
74.000000 91.701 131.3352
75.000000 91.609 131.3535
76.199997 91.497 131.3885
77.500000 91.373 131.3850
78.800003 91.246 131.3195
80.000000 91.117 131.2094
81.199997 90.990 131.3094
82.500000 90.902 131.4278
83.800003 90.819 131.4977
85.000000 90.759 131.6042
86.199997 90.694 131.5956
87.500000 90.594 131.6176
88.500000 90.513 131.7109
90.000000 90.400 131.8370
91.199997 90.310 131.8948
92.500000 90.218 131.9641
93.800003 90.131 132.0093
95.000000 90.049 132.0736
96.199997 89.970 132.1636
97.500000 89.888 132.2456
98.800003 89.804 132.3067
100.000000 89.721 132.3722
101.500000 89.616 132.5576
103.000000 89.525 132.7862
104.400002 89.446 132.9466
106.000000 89.348 133.0538
107.500000 89.250 133.1713
109.000000 89.159 133.3041
110.599998 89.068 133.4350
112.000000 88.988 133.5564
113.800003 88.884 133.7411
115.000000 88.814 133.8707
117.199997 88.688 134.1281
118.000000 88.645 134.2274
120.599998 88.515 134.5490
122.000000 88.448 134.7413
124.099998 88.351 135.0048
125.000000 88.310 135.1064
126.500000 88.245 135.2639
128.000000 88.184 135.3943
131.500000 88.037 135.6838
132.000000 88.014 135.7299
134.000000 87.922 135.9330
136.000000 87.831 136.1168
138.000000 87.737 136.3032
140.000000 87.646 136.5234
143.000000 87.511 136.8970
145.000000 87.423 137.1666
147.500000 87.320 137.5269
150.000000 87.228 137.9109
152.500000 87.144 138.3752
155.000000 87.075 138.8585
157.500000 87.015 139.2180
160.000000 86.954 139.4349
162.500000 86.888 139.5502
165.000000 86.808 139.6646
167.500000 86.715 139.8499
170.000000 86.619 140.1388
172.500000 86.538 140.5128
175.000000 86.477 140.8735
177.500000 86.422 141.1555
180.000000 86.363 141.3673
182.500000 86.298 141.5532
185.000000 86.230 141.7569
187.500000 86.162 141.9881
190.000000 86.094 142.2289
192.500000 86.029 142.4634
195.000000 85.964 142.7084
197.500000 85.902 142.9778
200.000000 85.839 143.2334
203.000000 85.759 143.5006
206.000000 85.681 143.7840
209.000000 85.609 144.0949
212.000000 85.538 144.4131
214.000000 85.492 144.6212
218.000000 85.402 145.0445
220.000000 85.358 145.2601
224.000000 85.272 145.6826
227.000000 85.211 145.9943
230.000000 85.152 146.3035
233.000000 85.093 146.6102
236.000000 85.033 146.9178
240.000000 84.956 147.3245
243.000000 84.900 147.6195
247.000000 84.831 148.0144
250.000000 84.779 148.3099
254.000000 84.702 148.7049
258.000000 84.625 149.1159
262.000000 84.552 149.5527
265.000000 84.498 149.8928
269.000000 84.431 150.3629
272.000000 84.386 150.7259
276.000000 84.329 151.2111
280.000000 84.274 151.7037
285.000000 84.218 152.3406
290.000000 84.184 152.9445
295.000000 84.164 153.3843
300.000000 84.141 153.6613
304.000000 84.107 153.8979
307.000000 84.075 154.0751
311.000000 84.026 154.2928
315.000000 83.974 154.5185
320.000000 83.907 154.8333
325.000000 83.840 155.1835
330.000000 83.776 155.5537
335.000000 83.712 155.9443
340.000000 83.652 156.3404
345.000000 83.596 156.7196
350.000000 83.542 157.0988
355.000000 83.481 157.5323
360.000000 83.422 157.9716
365.000000 83.368 158.3950
370.000000 83.316 158.8190
375.000000 83.266 159.2410
382.000000 83.197 159.8306
387.000000 83.150 160.2553
395.000000 83.077 160.9245
400.000000 83.032 161.3452
406.000000 82.980 161.8547
412.000000 82.929 162.3578
418.000000 82.881 162.8582
425.000000 82.827 163.4447
431.000000 82.783 163.9461
437.000000 82.738 164.4462
444.000000 82.692 165.0148
450.000000 82.655 165.4974
455.000000 82.619 165.9226
462.000000 82.567 166.5261
468.000000 82.528 167.0298
475.000000 82.486 167.6099
482.000000 82.444 168.1826
487.000000 82.414 168.5871
494.000000 82.375 169.1539
500.000000 82.341 169.6497
508.000000 82.301 170.3279
515.000000 82.267 170.9128
522.000000 82.235 171.4912
530.000000 82.199 172.1490
538.000000 82.165 172.8041
545.000000 82.134 173.3832
552.000000 82.106 173.9575
560.000000 82.078 174.6082
570.000000 82.042 175.4252
580.000000 82.008 176.2416
590.000000 81.979 177.0617
600.000000 81.953 177.8839
608.000000 81.931 178.5365
615.000000 81.912 179.1058
622.000000 81.894 179.6744
630.000000 81.876 -179.6739
640.000000 81.854 -178.8487
650.000000 81.835 -178.0141
660.000000 81.823 -177.1836
670.000000 81.812 -176.3509
680.000000 81.803 -175.5158
690.000000 81.796 -174.6790
700.000000 81.791 -173.8427
710.000000 81.793 -173.0060
720.000000 81.798 -172.1673
730.000000 81.803 -171.3255
740.000000 81.811 -170.4725
750.000000 81.822 -169.6288
762.000000 81.842 -168.6451
775.000000 81.870 -167.5742
788.000000 81.902 -166.5124
800.000000 81.936 -165.5386
812.000000 81.976 -164.5745
825.000000 82.023 -163.5323
838.000000 82.077 -162.4958
850.000000 82.131 -161.5624
862.000000 82.191 -160.6803
875.000000 82.260 -159.7493
885.000000 82.317 -159.0443
900.000000 82.407 -158.0142
912.000000 82.483 -157.2178
925.000000 82.568 -156.3862
938.000000 82.655 -155.5957
950.000000 82.738 -154.9026
962.000000 82.825 -154.2430
975.000000 82.921 -153.5619
988.000000 83.018 -152.9113
1000.000000 83.109 -152.3460
1015.000000 83.222 -151.6926
1030.000000 83.334 -151.0878
1044.000000 83.440 -150.5643
1060.000000 83.558 -150.0049
1075.000000 83.665 -149.5219
1090.000000 83.770 -149.0778
1106.000000 83.879 -148.6415
1120.000000 83.972 -148.2859
1138.000000 84.089 -147.8430
1150.000000 84.164 -147.5645
1172.000000 84.295 -147.1017
1180.000000 84.341 -146.9412
1206.000000 84.485 -146.4368
1220.000000 84.558 -146.1747
1241.000000 84.664 -145.7872
1250.000000 84.709 -145.6236
1265.000000 84.783 -145.3563
1280.000000 84.854 -145.0918
1315.000000 85.015 -144.4583
1320.000000 85.038 -144.3666
1340.000000 85.126 -143.9998
1360.000000 85.213 -143.6265
1380.000000 85.298 -143.2508
1400.000000 85.383 -142.8762
1430.000000 85.511 -142.3096
1450.000000 85.596 -141.9248
1475.000000 85.703 -141.4471
1500.000000 85.810 -140.9716
1525.000000 85.917 -140.4998
1550.000000 86.027 -140.0273
1575.000000 86.139 -139.5660
1600.000000 86.252 -139.1097
1625.000000 86.367 -138.6601
1650.000000 86.484 -138.2223
1675.000000 86.602 -137.7970
1700.000000 86.722 -137.3871
1725.000000 86.844 -136.9907
1750.000000 86.968 -136.6143
1775.000000 87.093 -136.2609
1800.000000 87.220 -135.9246
1825.000000 87.350 -135.6051
1850.000000 87.480 -135.3109
1875.000000 87.612 -135.0379
1900.000000 87.744 -134.7852
1925.000000 87.878 -134.5595
1950.000000 88.014 -134.3616
1975.000000 88.149 -134.1910
2000.000000 88.285 -134.0482
2030.000000 88.449 -133.9124
2060.000000 88.613 -133.8185
2090.000000 88.776 -133.7689
2120.000000 88.939 -133.7616
2140.000000 89.047 -133.7814
2180.000000 89.262 -133.8836
2200.000000 89.367 -133.9639
2240.000000 89.576 -134.1851
2270.000000 89.730 -134.4027
2300.000000 89.880 -134.6595
2330.000000 90.025 -134.9570
2360.000000 90.167 -135.2958
2400.000000 90.348 -135.8090
2430.000000 90.477 -136.2350
2470.000000 90.641 -136.8556
2500.000000 90.756 -137.3581
2540.000000 90.900 -138.0685
2580.000000 91.030 -138.8158
2620.000000 91.148 -139.5951
2650.000000 91.227 -140.1967
2690.000000 91.320 -141.0071
2720.000000 91.380 -141.6148
2760.000000 91.449 -142.4189
2800.000000 91.504 -143.2066
2850.000000 91.555 -144.1567
2900.000000 91.585 -145.0434
2950.000000 91.598 -145.8369
3000.000000 91.599 -146.5218
3040.000000 91.593 -146.9819
3070.000000 91.587 -147.2769
3110.000000 91.578 -147.6111
3150.000000 91.569 -147.8871
3200.000000 91.560 -148.1561
3250.000000 91.551 -148.3316
3300.000000 91.546 -148.3977
3350.000000 91.553 -148.3503
3400.000000 91.580 -148.2248
3450.000000 91.634 -148.1044
3500.000000 91.709 -148.0885
3550.000000 91.793 -148.2335
3600.000000 91.870 -148.5264
3650.000000 91.932 -148.9055
3700.000000 91.977 -149.2973
3750.000000 92.009 -149.6577
3820.000000 92.039 -150.0740
3870.000000 92.057 -150.2994
3950.000000 92.087 -150.5419
4000.000000 92.110 -150.6342
4060.000000 92.144 -150.7008
4120.000000 92.187 -150.7307
4180.000000 92.240 -150.7262
4250.000000 92.319 -150.6922
4310.000000 92.405 -150.6630
4370.000000 92.512 -150.6817
4440.000000 92.657 -150.8276
4500.000000 92.794 -151.0879
4550.000000 92.913 -151.4035
4620.000000 93.087 -152.0034
4680.000000 93.239 -152.6855
4750.000000 93.411 -153.6852
4820.000000 93.574 -154.8921
4870.000000 93.684 -155.8789
4940.000000 93.822 -157.4415
5000.000000 93.921 -158.9449
5080.000000 94.017 -161.1476
5150.000000 94.063 -163.2132
5220.000000 94.070 -165.3734
5300.000000 94.028 -167.9064
5380.000000 93.927 -170.4219
5450.000000 93.794 -172.5377
5520.000000 93.623 -174.5255
5600.000000 93.388 -176.5980
5700.000000 93.045 -178.8328
5800.000000 92.664 179.3828
5900.000000 92.267 178.0621
6000.000000 91.871 177.1772
6080.000000 91.563 176.7507
6150.000000 91.306 176.5538
6220.000000 91.061 176.4987
6300.000000 90.799 176.5900
6400.000000 90.500 176.9115
6500.000000 90.238 177.4374
6600.000000 90.021 178.1453
6700.000000 89.860 178.9721
6800.000000 89.763 179.8258
6900.000000 89.735 -179.3958
7000.000000 89.776 -178.8331
7100.000000 89.880 -178.6208
7200.000000 90.035 -178.8714
7300.000000 90.225 -179.6897
7400.000000 90.434 178.8336
7500.000000 90.637 176.6176
7620.000000 90.833 172.9008
7750.000000 90.916 167.6020
7880.000000 90.788 161.2622
8000.000000 90.431 155.0024
8120.000000 89.833 148.9805
8250.000000 88.952 143.3418
8380.000000 87.896 139.0045
8500.000000 86.835 136.2395
8620.000000 85.745 134.5804
8750.000000 84.577 133.8535
8850.000000 83.706 133.9216
9000.000000 82.461 134.8437
9120.000000 81.527 136.1353
9250.000000 80.581 137.9557
9380.000000 79.699 140.1181
9500.000000 78.940 142.3383
9620.000000 78.231 144.7278
9750.000000 77.516 147.4758
9880.000000 76.853 150.3422
10000.000000 76.286 153.0547
10150.000000 75.635 156.4972
10300.000000 75.046 159.9650
10440.000000 74.547 163.2024
10600.000000 74.032 166.8612
10750.000000 73.603 170.2081
10900.000000 73.220 173.4674
11060.000000 72.859 176.8266
11200.000000 72.581 179.6560
11380.000000 72.271 -176.8938
11500.000000 72.093 -174.7344
11720.000000 71.817 -171.0850
11800.000000 71.731 -169.8550
12060.000000 71.507 -166.2484
12200.000000 71.418 -164.5670
12410.000000 71.319 -162.3715
12500.000000 71.291 -161.5410
12650.000000 71.256 -160.3157
12800.000000 71.235 -159.3050
13150.000000 71.249 -157.7872
13200.000000 71.259 -157.6626
13400.000000 71.320 -157.3983
13600.000000 71.416 -157.5292
13800.000000 71.553 -158.0233
14000.000000 71.747 -158.8913
14300.000000 72.190 -161.1580
14500.000000 72.621 -163.5878
14750.000000 73.344 -168.1706
15000.000000 74.277 -175.3940
15250.000000 75.310 173.1482
15500.000000 76.095 155.7034
15750.000000 76.108 132.8715
16000.000000 75.030 109.1194
16250.000000 73.028 89.3236
16500.000000 70.582 74.6741
16750.000000 68.121 63.7285
17000.000000 65.860 54.7475
17250.000000 63.844 46.5261
17500.000000 62.058 38.2909
17750.000000 60.480 29.4273
18000.000000 59.088 19.4912
18250.000000 57.865 8.0874
18500.000000 56.811 -5.3518
18750.000000 55.899 -21.6273
19000.000000 55.073 -41.5291
19250.000000 54.267 -65.8562
19500.000000 53.380 -95.0019
19750.000000 52.390 -125.9139
