* Measurement data measured by REW V5.20.9
* Source: /Users/trannguyen/Dropbox/Project Folders/InEarGems/Target/IEGems Target F v0.1.txt
* Format: Comma/Tab/Space delimited data
* Dated: 07/06/2022 9:18:43 PM
* REW Settings:
*  C-weighting compensation: Off
*  Target level: 75.0 dB
* Note: ; Measurement imported from /Users/trannguyen/Dropbox/Project Folders/InEarGems/Target/IEGems Target F v0.1.txt Format: Comma/Tab/Space delimited data 227 values loaded, 20 Hz to 19,723 Hz log spaced 
* Measurement: IEGems Target F v0.1
* Smoothing: 1/24 octave
* Frequency Step: 1/48 octave
* Start Frequency: 20.600 Hz
*
* Freq(Hz) SPL(dB)
20.600000 95.698
20.900000 95.717
21.200001 95.741
21.400000 95.758
21.799999 95.794
22.000000 95.810
22.400000 95.842
22.700001 95.871
23.000000 95.903
23.299999 95.931
23.600000 95.952
24.000000 95.974
24.299999 95.997
24.700001 96.036
25.000000 96.059
25.400000 96.072
25.799999 96.073
26.200001 96.072
26.500000 96.074
26.900000 96.085
27.200001 96.099
27.600000 96.116
28.000000 96.125
28.500000 96.133
29.000000 96.152
29.500000 96.173
30.000000 96.184
30.400000 96.187
30.700001 96.188
31.100000 96.188
31.500000 96.188
32.000000 96.188
32.500000 96.188
33.000000 96.188
33.500000 96.188
34.000000 96.188
34.500000 96.188
35.000000 96.189
35.500000 96.190
36.000000 96.186
36.500000 96.171
37.000000 96.150
37.500000 96.134
38.200001 96.129
38.700001 96.130
39.500000 96.126
40.000000 96.118
40.599998 96.100
41.200001 96.082
41.799999 96.073
42.500000 96.072
43.099998 96.074
43.700001 96.074
44.400002 96.074
45.000000 96.071
45.500000 96.065
46.200001 96.046
46.799999 96.022
47.500000 95.996
48.200001 95.977
48.700001 95.965
49.400002 95.950
50.000000 95.936
50.799999 95.917
51.500000 95.898
52.200001 95.880
53.000000 95.863
53.799999 95.843
54.500000 95.814
55.200001 95.777
56.000000 95.742
57.000000 95.729
58.000000 95.726
59.000000 95.712
60.000000 95.693
60.799999 95.677
61.500000 95.664
62.200001 95.652
63.000000 95.638
64.000000 95.616
65.000000 95.586
66.000000 95.554
67.000000 95.529
68.000000 95.512
69.000000 95.497
70.000000 95.481
71.000000 95.461
72.000000 95.435
73.000000 95.410
74.000000 95.390
75.000000 95.373
76.199997 95.348
77.500000 95.313
78.800003 95.282
80.000000 95.262
81.199997 95.241
82.500000 95.210
83.800003 95.176
85.000000 95.149
86.199997 95.125
87.500000 95.098
88.500000 95.076
90.000000 95.039
91.199997 95.007
92.500000 94.972
93.800003 94.938
95.000000 94.909
96.199997 94.880
97.500000 94.848
98.800003 94.813
100.000000 94.779
101.500000 94.733
103.000000 94.685
104.400002 94.637
106.000000 94.579
107.500000 94.522
109.000000 94.464
110.599998 94.406
112.000000 94.356
113.800003 94.283
115.000000 94.223
117.199997 94.098
118.000000 94.050
120.599998 93.891
122.000000 93.804
124.099998 93.672
125.000000 93.611
126.500000 93.505
128.000000 93.389
131.500000 93.097
132.000000 93.053
134.000000 92.879
136.000000 92.709
138.000000 92.544
140.000000 92.383
143.000000 92.150
145.000000 92.002
147.500000 91.828
150.000000 91.670
152.500000 91.529
155.000000 91.402
157.500000 91.288
160.000000 91.182
162.500000 91.080
165.000000 90.981
167.500000 90.884
170.000000 90.788
172.500000 90.693
175.000000 90.599
177.500000 90.507
180.000000 90.416
182.500000 90.330
185.000000 90.250
187.500000 90.175
190.000000 90.101
192.500000 90.027
195.000000 89.953
197.500000 89.878
200.000000 89.804
203.000000 89.717
206.000000 89.634
209.000000 89.556
212.000000 89.486
214.000000 89.440
218.000000 89.349
220.000000 89.303
224.000000 89.212
227.000000 89.146
230.000000 89.088
233.000000 89.040
236.000000 88.999
240.000000 88.941
243.000000 88.894
247.000000 88.834
250.000000 88.796
254.000000 88.750
258.000000 88.703
262.000000 88.657
265.000000 88.626
269.000000 88.594
272.000000 88.575
276.000000 88.557
280.000000 88.545
285.000000 88.529
290.000000 88.508
295.000000 88.475
300.000000 88.440
304.000000 88.422
307.000000 88.418
311.000000 88.426
315.000000 88.452
320.000000 88.497
325.000000 88.529
330.000000 88.538
335.000000 88.538
340.000000 88.538
345.000000 88.540
350.000000 88.547
355.000000 88.561
360.000000 88.585
365.000000 88.614
370.000000 88.639
375.000000 88.655
382.000000 88.675
387.000000 88.696
395.000000 88.732
400.000000 88.747
406.000000 88.762
412.000000 88.788
418.000000 88.822
425.000000 88.855
431.000000 88.870
437.000000 88.881
444.000000 88.896
450.000000 88.914
455.000000 88.933
462.000000 88.966
468.000000 88.992
475.000000 89.017
482.000000 89.039
487.000000 89.058
494.000000 89.085
500.000000 89.103
508.000000 89.111
515.000000 89.110
522.000000 89.108
530.000000 89.109
538.000000 89.120
545.000000 89.140
552.000000 89.158
560.000000 89.168
570.000000 89.168
580.000000 89.164
590.000000 89.156
600.000000 89.138
608.000000 89.121
615.000000 89.113
622.000000 89.111
630.000000 89.106
640.000000 89.079
650.000000 89.033
660.000000 88.982
670.000000 88.931
680.000000 88.873
690.000000 88.804
700.000000 88.722
710.000000 88.626
720.000000 88.517
730.000000 88.399
740.000000 88.275
750.000000 88.143
762.000000 87.974
775.000000 87.784
788.000000 87.587
800.000000 87.399
812.000000 87.207
825.000000 86.997
838.000000 86.791
850.000000 86.606
862.000000 86.425
875.000000 86.234
885.000000 86.092
900.000000 85.890
912.000000 85.739
925.000000 85.589
938.000000 85.453
950.000000 85.340
962.000000 85.239
975.000000 85.143
988.000000 85.064
1000.000000 85.005
1015.000000 84.948
1030.000000 84.910
1044.000000 84.893
1060.000000 84.896
1075.000000 84.919
1090.000000 84.958
1106.000000 85.017
1120.000000 85.082
1138.000000 85.184
1150.000000 85.262
1172.000000 85.429
1180.000000 85.496
1206.000000 85.729
1220.000000 85.863
1241.000000 86.073
1250.000000 86.167
1265.000000 86.330
1280.000000 86.496
1315.000000 86.895
1320.000000 86.953
1340.000000 87.188
1360.000000 87.427
1380.000000 87.669
1400.000000 87.915
1430.000000 88.287
1450.000000 88.534
1475.000000 88.840
1500.000000 89.144
1525.000000 89.449
1550.000000 89.756
1575.000000 90.055
1600.000000 90.343
1625.000000 90.627
1650.000000 90.913
1675.000000 91.197
1700.000000 91.471
1725.000000 91.735
1750.000000 91.994
1775.000000 92.247
1800.000000 92.492
1825.000000 92.726
1850.000000 92.952
1875.000000 93.170
1900.000000 93.381
1925.000000 93.581
1950.000000 93.770
1975.000000 93.948
2000.000000 94.118
2030.000000 94.310
2060.000000 94.485
2090.000000 94.639
2120.000000 94.771
2140.000000 94.846
2180.000000 94.971
2200.000000 95.024
2240.000000 95.117
2270.000000 95.175
2300.000000 95.220
2330.000000 95.253
2360.000000 95.271
2400.000000 95.275
2430.000000 95.264
2470.000000 95.238
2500.000000 95.207
2540.000000 95.153
2580.000000 95.083
2620.000000 95.001
2650.000000 94.933
2690.000000 94.835
2720.000000 94.759
2760.000000 94.651
2800.000000 94.536
2850.000000 94.383
2900.000000 94.234
2950.000000 94.092
3000.000000 93.954
3040.000000 93.846
3070.000000 93.768
3110.000000 93.671
3150.000000 93.583
3200.000000 93.486
3250.000000 93.406
3300.000000 93.350
3350.000000 93.323
3400.000000 93.316
3450.000000 93.319
3500.000000 93.327
3550.000000 93.341
3600.000000 93.360
3650.000000 93.388
3700.000000 93.428
3750.000000 93.473
3820.000000 93.533
3870.000000 93.575
3950.000000 93.649
4000.000000 93.698
4060.000000 93.750
4120.000000 93.793
4180.000000 93.833
4250.000000 93.880
4310.000000 93.922
4370.000000 93.966
4440.000000 94.000
4500.000000 93.996
4550.000000 93.968
4620.000000 93.916
4680.000000 93.869
4750.000000 93.792
4820.000000 93.663
4870.000000 93.528
4940.000000 93.266
5000.000000 92.948
5080.000000 92.312
5150.000000 91.565
5220.000000 90.742
5300.000000 89.711
5380.000000 88.736
5450.000000 88.031
5520.000000 87.540
5600.000000 87.170
5700.000000 86.849
5800.000000 86.631
5900.000000 86.510
6000.000000 86.484
6080.000000 86.535
6150.000000 86.623
6220.000000 86.736
6300.000000 86.875
6400.000000 87.053
6500.000000 87.241
6600.000000 87.436
6700.000000 87.637
6800.000000 87.839
6900.000000 88.046
7000.000000 88.260
7100.000000 88.476
7200.000000 88.691
7300.000000 88.902
7400.000000 89.111
7500.000000 89.317
7620.000000 89.557
7750.000000 89.802
7880.000000 90.029
8000.000000 90.218
8120.000000 90.383
8250.000000 90.522
8380.000000 90.619
8500.000000 90.674
8620.000000 90.696
8750.000000 90.675
8850.000000 90.623
9000.000000 90.487
9120.000000 90.331
9250.000000 90.114
9380.000000 89.845
9500.000000 89.531
9620.000000 89.126
9750.000000 88.612
9880.000000 88.072
10000.000000 87.514
10150.000000 86.775
10300.000000 86.066
10440.000000 85.369
10600.000000 84.518
10750.000000 83.718
10900.000000 82.907
11060.000000 82.060
11200.000000 81.340
11380.000000 80.409
11500.000000 79.815
11720.000000 78.890
11800.000000 78.595
12060.000000 77.790
12200.000000 77.477
12410.000000 77.195
12500.000000 77.147
12650.000000 77.162
12800.000000 77.300
13150.000000 78.258
13200.000000 78.479
13400.000000 79.482
13600.000000 80.682
13800.000000 82.070
14000.000000 83.468
14300.000000 85.181
14500.000000 86.067
14750.000000 86.885
15000.000000 87.401
15250.000000 87.734
15500.000000 87.947
15750.000000 88.081
16000.000000 88.157
16250.000000 88.190
16500.000000 88.192
16750.000000 88.169
17000.000000 88.128
17250.000000 88.072
17500.000000 88.007
17750.000000 87.932
18000.000000 87.847
18250.000000 87.751
18500.000000 87.650
18750.000000 87.548
19000.000000 87.448
19250.000000 87.352
19500.000000 87.267

