* Measurement data measured by REW V5.20.9
* Source: USB-C to 3.5mm Headphone Jack Adapter, USB-C to 3.5mm Headphone Jack Adapter, 0, volume: 0.138
* Format: 256k Log Swept Sine, 1 sweep at -12.0 dBFS with no timing reference
* Dated: 03/11/2022 9:03:08 PM
* REW Settings:
*  C-weighting compensation: Off
*  Target level: 75.0 dB
* Note: ; 
* Measurement: JD7 - L
* Smoothing: 1/24 octave
* Frequency Step: 1/48 octave
* Start Frequency: 1.000 Hz
*
* Freq(Hz) SPL(dB) Phase(degrees)
1.000000 65.824 58.5740
1.015000 65.969 56.8069
1.030000 66.118 55.1236
1.044000 66.262 53.6175
1.060000 66.432 51.9684
1.075000 66.597 50.4875
1.090000 66.766 49.0650
1.106000 66.950 47.6070
1.120000 67.114 46.3771
1.138000 67.329 44.8527
1.150000 67.474 43.8684
1.172000 67.742 42.1215
1.180000 67.841 41.5025
1.206000 68.162 39.5395
1.220000 68.336 38.5074
1.241000 68.595 36.9818
1.250000 68.706 36.3336
1.265000 68.890 35.2572
1.280000 69.072 34.1817
1.315000 69.487 31.6503
1.320000 69.545 31.2837
1.340000 69.773 29.7981
1.360000 69.996 28.2874
1.380000 70.219 26.7852
1.400000 70.440 25.2952
1.430000 70.771 23.0866
1.450000 70.991 21.6341
1.475000 71.264 19.8438
1.500000 71.534 18.0845
1.525000 71.802 16.3593
1.550000 72.067 14.6716
1.575000 72.329 13.0243
1.600000 72.588 11.4207
1.625000 72.843 9.8639
1.650000 73.093 8.3571
1.675000 73.339 6.9034
1.700000 73.581 5.5096
1.725000 73.819 4.1844
1.750000 74.053 2.9215
1.775000 74.283 1.7140
1.800000 74.510 0.5549
1.825000 74.734 -0.5627
1.850000 74.954 -1.6458
1.875000 75.172 -2.7012
1.900000 75.385 -3.7360
1.925000 75.596 -4.7570
1.950000 75.804 -5.7713
1.975000 76.009 -6.7857
2.000000 76.211 -7.8072
2.030000 76.450 -9.0487
2.060000 76.684 -10.2798
2.090000 76.912 -11.4922
2.120000 77.136 -12.6866
2.140000 77.283 -13.4733
2.180000 77.571 -15.0241
2.200000 77.713 -15.7887
2.240000 77.990 -17.2971
2.270000 78.194 -18.4110
2.300000 78.394 -19.5108
2.330000 78.592 -20.5969
2.360000 78.786 -21.6701
2.400000 79.039 -23.0784
2.430000 79.225 -24.1170
2.470000 79.466 -25.4784
2.500000 79.643 -26.4822
2.540000 79.873 -27.7980
2.580000 80.098 -29.0883
2.620000 80.318 -30.3534
2.650000 80.479 -31.2860
2.690000 80.692 -32.5081
2.720000 80.847 -33.4052
2.760000 81.050 -34.5700
2.800000 81.248 -35.7038
2.850000 81.487 -37.0857
2.900000 81.719 -38.4379
2.950000 81.945 -39.7707
3.000000 82.165 -41.0946
3.040000 82.337 -42.1540
3.070000 82.464 -42.9483
3.110000 82.628 -44.0034
3.150000 82.788 -45.0510
3.200000 82.983 -46.3444
3.250000 83.172 -47.6137
3.300000 83.357 -48.8522
3.350000 83.537 -50.0531
3.400000 83.713 -51.2099
3.450000 83.883 -52.3237
3.500000 84.048 -53.4022
3.550000 84.208 -54.4532
3.600000 84.364 -55.4844
3.650000 84.517 -56.5037
3.700000 84.667 -57.5189
3.750000 84.813 -58.5311
3.820000 85.010 -59.9316
3.870000 85.146 -60.9156
3.950000 85.358 -62.4522
4.000000 85.487 -63.3839
4.060000 85.639 -64.4672
4.120000 85.786 -65.5103
4.180000 85.929 -66.5196
4.250000 86.092 -67.6637
4.310000 86.228 -68.6239
4.370000 86.361 -69.5729
4.440000 86.513 -70.6657
4.500000 86.640 -71.5840
4.550000 86.743 -72.3362
4.620000 86.885 -73.3695
4.680000 87.005 -74.2368
4.750000 87.141 -75.2261
4.820000 87.275 -76.1881
4.870000 87.369 -76.8606
4.940000 87.497 -77.7856
5.000000 87.605 -78.5664
5.080000 87.747 -79.5941
5.150000 87.868 -80.4760
5.220000 87.987 -81.3421
5.300000 88.120 -82.3161
5.380000 88.250 -83.2768
5.450000 88.361 -84.1067
5.520000 88.470 -84.9248
5.600000 88.591 -85.8463
5.700000 88.739 -86.9801
5.800000 88.882 -88.0938
5.900000 89.021 -89.1862
6.000000 89.155 -90.2608
6.080000 89.259 -91.1098
6.150000 89.347 -91.8452
6.220000 89.433 -92.5728
6.300000 89.529 -93.3936
6.400000 89.645 -94.4017
6.500000 89.757 -95.3893
6.600000 89.864 -96.3576
6.700000 89.968 -97.3074
6.800000 90.068 -98.2393
6.900000 90.164 -99.1530
7.000000 90.257 -100.0482
7.100000 90.347 -100.9247
7.200000 90.434 -101.7813
7.300000 90.519 -102.6200
7.400000 90.601 -103.4438
7.500000 90.681 -104.2525
7.620000 90.775 -105.2027
7.750000 90.873 -106.2127
7.880000 90.967 -107.2029
8.000000 91.052 -108.1002
8.120000 91.133 -108.9848
8.250000 91.219 -109.9283
8.380000 91.301 -110.8560
8.500000 91.373 -111.6989
8.620000 91.442 -112.5290
8.750000 91.514 -113.4095
8.850000 91.567 -114.0732
9.000000 91.643 -115.0466
9.120000 91.701 -115.8027
9.250000 91.762 -116.5989
9.380000 91.821 -117.3723
9.500000 91.875 -118.0658
9.620000 91.928 -118.7389
9.750000 91.985 -119.4529
9.880000 92.044 -120.1518
10.000000 92.098 -120.7850
10.150000 92.166 -121.5747
10.300000 92.236 -122.3597
10.440000 92.300 -123.0982
10.600000 92.374 -123.9546
10.750000 92.441 -124.7677
10.900000 92.504 -125.5948
11.060000 92.568 -126.4864
11.200000 92.618 -127.2669
11.380000 92.676 -128.2695
11.500000 92.711 -128.9222
11.720000 92.764 -130.0887
11.800000 92.782 -130.4944
12.060000 92.830 -131.7448
12.200000 92.855 -132.3686
12.410000 92.892 -133.2413
12.500000 92.909 -133.5974
12.650000 92.938 -134.1634
12.800000 92.970 -134.7132
13.150000 93.057 -135.9629
13.200000 93.071 -136.1431
13.400000 93.126 -136.8700
13.600000 93.182 -137.6207
13.800000 93.235 -138.3903
14.000000 93.285 -139.1757
14.300000 93.349 -140.3504
14.500000 93.385 -141.1154
14.750000 93.424 -142.0337
15.000000 93.461 -142.9026
15.250000 93.497 -143.7315
15.500000 93.535 -144.5332
15.750000 93.575 -145.3283
16.000000 93.615 -146.1355
16.250000 93.652 -146.9584
16.500000 93.685 -147.7949
16.750000 93.710 -148.6327
17.000000 93.728 -149.4501
17.250000 93.739 -150.2322
17.500000 93.747 -150.9676
17.750000 93.752 -151.6509
18.000000 93.760 -152.2914
18.250000 93.771 -152.9018
18.500000 93.785 -153.4964
18.750000 93.802 -154.0925
19.000000 93.820 -154.6982
19.250000 93.838 -155.3138
19.500000 93.853 -155.9358
19.750000 93.865 -156.5527
20.000000 93.874 -157.1535
20.299999 93.883 -157.8450
20.600000 93.892 -158.5022
20.900000 93.904 -159.1344
21.200001 93.917 -159.7585
21.400000 93.928 -160.1782
21.799999 93.946 -161.0328
22.000000 93.953 -161.4642
22.400000 93.962 -162.3167
22.700001 93.964 -162.9278
23.000000 93.964 -163.5067
23.299999 93.964 -164.0568
23.600000 93.966 -164.5909
24.000000 93.970 -165.3036
24.299999 93.972 -165.8477
24.700001 93.970 -166.5767
25.000000 93.963 -167.1071
25.400000 93.949 -167.7672
25.799999 93.937 -168.3671
26.200001 93.930 -168.9331
26.500000 93.930 -169.3625
26.900000 93.932 -169.9698
27.200001 93.933 -170.4554
27.600000 93.926 -171.1198
28.000000 93.911 -171.7612
28.500000 93.888 -172.4774
29.000000 93.874 -173.1212
29.500000 93.873 -173.7934
30.000000 93.868 -174.5662
30.400000 93.850 -175.2167
30.700001 93.826 -175.6672
31.100000 93.786 -176.1559
31.500000 93.752 -176.5045
32.000000 93.737 -176.8534
32.500000 93.750 -177.2949
33.000000 93.764 -177.9225
33.500000 93.757 -178.6486
34.000000 93.730 -179.3280
34.500000 93.700 -179.9192
35.000000 93.673 179.5171
35.500000 93.644 178.9419
36.000000 93.608 178.4004
36.500000 93.571 177.9485
37.000000 93.546 177.5614
37.500000 93.535 177.1554
38.200001 93.524 176.4849
38.700001 93.510 175.9809
39.500000 93.485 175.1974
40.000000 93.468 174.6793
40.599998 93.433 174.0301
41.200001 93.380 173.4518
41.799999 93.320 173.0123
42.500000 93.262 172.6182
43.099998 93.224 172.3041
43.700001 93.199 171.9599
44.400002 93.177 171.4369
45.000000 93.148 170.8862
45.500000 93.113 170.4434
46.200001 93.065 169.9259
46.799999 93.037 169.4873
47.500000 93.003 168.9051
48.200001 92.960 168.4058
48.700001 92.942 168.1141
49.400002 92.935 167.5636
50.000000 92.908 166.9083
50.799999 92.815 166.1669
51.500000 92.728 165.8342
52.200001 92.664 165.5671
53.000000 92.594 165.2155
53.799999 92.532 164.8846
54.500000 92.488 164.5142
55.200001 92.438 164.0606
56.000000 92.377 163.5608
57.000000 92.305 162.9061
58.000000 92.218 162.3271
59.000000 92.150 161.9443
60.000000 92.096 161.4625
60.799999 92.034 161.0646
61.500000 91.973 160.7930
62.200001 91.915 160.5449
63.000000 91.851 160.1922
64.000000 91.754 159.6367
65.000000 91.636 159.1052
66.000000 91.521 158.6022
67.000000 91.403 158.0918
68.000000 91.283 157.6485
69.000000 91.163 157.2307
70.000000 91.028 156.8673
71.000000 90.880 156.5721
72.000000 90.710 156.2968
73.000000 90.513 156.0958
74.000000 90.293 155.9818
75.000000 90.046 156.0154
76.199997 89.714 156.4094
77.500000 89.299 157.7299
78.800003 88.890 160.8571
80.000000 88.720 165.6447
81.199997 88.989 171.1053
82.500000 89.750 175.1859
83.800003 90.581 175.4830
85.000000 91.093 173.2861
86.199997 91.371 170.4514
87.500000 91.501 167.4059
88.500000 91.513 165.3710
90.000000 91.469 163.0100
91.199997 91.409 161.6032
92.500000 91.330 160.4028
93.800003 91.235 159.4414
95.000000 91.149 158.6794
96.199997 91.051 157.8776
97.500000 90.914 157.1449
98.800003 90.764 156.7009
100.000000 90.640 156.5676
101.500000 90.532 156.4587
103.000000 90.435 156.1861
104.400002 90.335 155.9466
106.000000 90.230 155.7740
107.500000 90.144 155.6981
109.000000 90.065 155.7031
110.599998 89.987 155.8001
112.000000 89.931 155.9208
113.800003 89.883 156.0006
115.000000 89.865 155.9517
117.199997 89.845 155.6522
118.000000 89.836 155.4896
120.599998 89.789 154.9201
122.000000 89.748 154.6224
124.099998 89.675 154.2100
125.000000 89.640 154.0316
126.500000 89.578 153.7325
128.000000 89.511 153.4539
131.500000 89.350 152.9348
132.000000 89.327 152.8723
134.000000 89.233 152.6435
136.000000 89.137 152.4511
138.000000 89.047 152.2931
140.000000 88.961 152.1471
143.000000 88.830 152.0054
145.000000 88.740 151.9343
147.500000 88.627 151.8165
150.000000 88.520 151.7347
152.500000 88.434 151.7505
155.000000 88.349 151.7715
157.500000 88.258 151.7853
160.000000 88.168 151.7515
162.500000 88.083 151.7023
165.000000 87.998 151.6943
167.500000 87.910 151.7275
170.000000 87.821 151.7672
172.500000 87.734 151.8045
175.000000 87.650 151.8509
177.500000 87.567 151.9107
180.000000 87.486 151.9776
182.500000 87.406 152.0503
185.000000 87.327 152.1360
187.500000 87.251 152.2328
190.000000 87.179 152.3251
192.500000 87.107 152.4051
195.000000 87.037 152.4894
197.500000 86.971 152.5679
200.000000 86.903 152.6674
203.000000 86.821 152.9001
206.000000 86.741 153.1562
209.000000 86.657 153.3994
212.000000 86.578 153.5763
214.000000 86.527 153.6687
218.000000 86.433 153.8978
220.000000 86.389 154.0018
224.000000 86.292 154.1973
227.000000 86.215 154.3872
230.000000 86.142 154.6165
233.000000 86.077 154.8957
236.000000 86.017 155.1602
240.000000 85.916 155.3672
243.000000 85.842 155.5137
247.000000 85.771 155.7046
250.000000 85.719 155.8775
254.000000 85.646 156.2181
258.000000 85.571 156.5630
262.000000 85.484 156.8345
265.000000 85.421 157.0445
269.000000 85.350 157.3765
272.000000 85.305 157.6802
276.000000 85.244 158.1280
280.000000 85.175 158.4825
285.000000 85.089 158.7326
290.000000 85.014 159.0821
295.000000 84.941 159.5476
300.000000 84.874 159.9722
304.000000 84.813 160.2390
307.000000 84.766 160.4329
311.000000 84.707 160.7274
315.000000 84.652 161.0642
320.000000 84.587 161.4934
325.000000 84.520 161.9085
330.000000 84.456 162.3224
335.000000 84.396 162.7413
340.000000 84.338 163.1718
345.000000 84.285 163.6113
350.000000 84.232 164.0398
355.000000 84.168 164.4283
360.000000 84.111 164.8511
365.000000 84.061 165.2776
370.000000 84.012 165.6947
375.000000 83.964 166.1299
382.000000 83.898 166.7279
387.000000 83.855 167.1286
395.000000 83.791 167.7815
400.000000 83.749 168.1497
406.000000 83.693 168.6103
412.000000 83.640 169.2121
418.000000 83.590 169.7599
425.000000 83.542 170.3177
431.000000 83.499 170.8078
437.000000 83.450 171.3171
444.000000 83.406 171.8813
450.000000 83.380 172.3763
455.000000 83.349 172.8239
462.000000 83.303 173.4715
468.000000 83.266 173.9842
475.000000 83.227 174.5158
482.000000 83.192 175.0606
487.000000 83.167 175.4869
494.000000 83.130 176.0819
500.000000 83.099 176.5784
508.000000 83.061 177.2455
515.000000 83.032 177.8216
522.000000 83.007 178.3893
530.000000 82.977 179.0250
538.000000 82.946 179.6835
545.000000 82.919 -179.7222
552.000000 82.895 -179.1410
560.000000 82.872 -178.4999
570.000000 82.844 -177.6879
580.000000 82.818 -176.8753
590.000000 82.797 -176.0794
600.000000 82.776 -175.2935
608.000000 82.759 -174.6361
615.000000 82.747 -174.0513
622.000000 82.738 -173.4762
630.000000 82.729 -172.8283
640.000000 82.719 -172.0161
650.000000 82.714 -171.2005
660.000000 82.706 -170.3905
670.000000 82.698 -169.5874
680.000000 82.697 -168.8011
690.000000 82.704 -168.0221
700.000000 82.711 -167.2307
710.000000 82.716 -166.4292
720.000000 82.724 -165.6336
730.000000 82.736 -164.8443
740.000000 82.750 -164.0697
750.000000 82.768 -163.3026
762.000000 82.793 -162.3525
775.000000 82.824 -161.3225
788.000000 82.860 -160.3213
800.000000 82.900 -159.4099
812.000000 82.947 -158.5293
825.000000 83.004 -157.6207
838.000000 83.064 -156.7803
850.000000 83.114 -156.0626
862.000000 83.156 -155.3998
875.000000 83.193 -154.6707
885.000000 83.214 -154.0424
900.000000 83.243 -152.9641
912.000000 83.280 -151.9992
925.000000 83.343 -150.9211
938.000000 83.427 -149.8822
950.000000 83.515 -149.0003
962.000000 83.612 -148.2024
975.000000 83.721 -147.4056
988.000000 83.827 -146.6733
1000.000000 83.925 -146.0609
1015.000000 84.051 -145.3505
1030.000000 84.177 -144.6923
1044.000000 84.293 -144.1169
1060.000000 84.423 -143.5212
1075.000000 84.542 -143.0194
1090.000000 84.656 -142.5589
1106.000000 84.776 -142.0807
1120.000000 84.881 -141.6797
1138.000000 85.012 -141.2087
1150.000000 85.096 -140.9191
1172.000000 85.244 -140.4418
1180.000000 85.296 -140.2727
1206.000000 85.463 -139.7343
1220.000000 85.550 -139.4846
1241.000000 85.676 -139.1237
1250.000000 85.729 -138.9735
1265.000000 85.816 -138.7266
1280.000000 85.902 -138.4779
1315.000000 86.095 -137.8972
1320.000000 86.121 -137.8165
1340.000000 86.226 -137.5025
1360.000000 86.331 -137.2055
1380.000000 86.436 -136.9023
1400.000000 86.539 -136.5915
1430.000000 86.693 -136.1438
1450.000000 86.795 -135.8635
1475.000000 86.919 -135.5221
1500.000000 87.045 -135.1901
1525.000000 87.172 -134.8665
1550.000000 87.301 -134.5572
1575.000000 87.430 -134.2598
1600.000000 87.561 -133.9826
1625.000000 87.691 -133.7217
1650.000000 87.821 -133.4745
1675.000000 87.951 -133.2423
1700.000000 88.084 -133.0406
1725.000000 88.218 -132.8728
1750.000000 88.352 -132.7277
1775.000000 88.485 -132.6022
1800.000000 88.617 -132.5047
1825.000000 88.751 -132.4380
1850.000000 88.884 -132.4033
1875.000000 89.018 -132.3946
1900.000000 89.151 -132.4137
1925.000000 89.282 -132.4673
1950.000000 89.413 -132.5512
1975.000000 89.543 -132.6651
2000.000000 89.672 -132.8101
2030.000000 89.823 -133.0232
2060.000000 89.970 -133.2769
2090.000000 90.113 -133.5724
2120.000000 90.253 -133.9099
2140.000000 90.343 -134.1549
2180.000000 90.518 -134.6854
2200.000000 90.603 -134.9702
2240.000000 90.768 -135.5824
2270.000000 90.887 -136.0905
2300.000000 91.001 -136.6524
2330.000000 91.107 -137.2572
2360.000000 91.205 -137.8906
2400.000000 91.322 -138.7658
2430.000000 91.399 -139.4408
2470.000000 91.490 -140.3531
2500.000000 91.549 -141.0408
2540.000000 91.615 -141.9604
2580.000000 91.669 -142.8709
2620.000000 91.711 -143.7632
2650.000000 91.734 -144.4216
2690.000000 91.755 -145.2768
2720.000000 91.764 -145.8938
2760.000000 91.768 -146.6812
2800.000000 91.764 -147.4272
2850.000000 91.749 -148.3014
2900.000000 91.724 -149.1064
2950.000000 91.692 -149.8321
3000.000000 91.656 -150.4826
3040.000000 91.626 -150.9590
3070.000000 91.604 -151.2977
3110.000000 91.572 -151.7265
3150.000000 91.538 -152.1295
3200.000000 91.494 -152.5975
3250.000000 91.448 -153.0209
3300.000000 91.402 -153.4009
3350.000000 91.357 -153.7427
3400.000000 91.313 -154.0561
3450.000000 91.270 -154.3434
3500.000000 91.229 -154.6107
3550.000000 91.189 -154.8629
3600.000000 91.150 -155.1006
3650.000000 91.112 -155.3287
3700.000000 91.075 -155.5470
3750.000000 91.038 -155.7583
3820.000000 90.985 -156.0393
3870.000000 90.946 -156.1917
3950.000000 90.904 -156.2719
4000.000000 90.910 -156.3507
4060.000000 90.934 -156.6794
4120.000000 90.947 -157.2391
4180.000000 90.938 -157.9186
4250.000000 90.904 -158.7727
4310.000000 90.858 -159.5375
4370.000000 90.795 -160.3211
4440.000000 90.703 -161.2466
4500.000000 90.607 -162.0340
4550.000000 90.515 -162.6762
4620.000000 90.368 -163.5415
4680.000000 90.224 -164.2324
4750.000000 90.040 -164.9553
4820.000000 89.839 -165.5724
4870.000000 89.687 -165.9421
4940.000000 89.464 -166.3646
5000.000000 89.265 -166.6369
5080.000000 88.991 -166.8456
5150.000000 88.743 -166.8728
5220.000000 88.492 -166.7561
5300.000000 88.204 -166.4484
5380.000000 87.920 -165.9510
5450.000000 87.676 -165.3499
5520.000000 87.440 -164.5946
5600.000000 87.186 -163.5661
5700.000000 86.894 -162.0771
5800.000000 86.639 -160.3905
5900.000000 86.421 -158.5334
6000.000000 86.243 -156.5363
6080.000000 86.129 -154.8620
6150.000000 86.052 -153.3588
6220.000000 85.996 -151.8290
6300.000000 85.959 -150.0465
6400.000000 85.951 -147.7780
6500.000000 85.990 -145.4798
6600.000000 86.083 -143.1610
6700.000000 86.237 -140.8455
6800.000000 86.459 -138.5838
6900.000000 86.755 -136.4374
7000.000000 87.132 -134.4772
7100.000000 87.595 -132.7957
7200.000000 88.149 -131.5002
7300.000000 88.797 -130.7103
7400.000000 89.545 -130.5894
7500.000000 90.392 -131.3693
7620.000000 91.517 -133.9523
7750.000000 92.781 -139.5623
7880.000000 93.874 -148.9066
8000.000000 94.463 -160.7278
8120.000000 94.452 -174.0076
8250.000000 93.757 172.7801
8380.000000 92.565 162.8424
8500.000000 91.282 156.8351
8620.000000 90.008 153.2644
8750.000000 88.747 151.3249
8850.000000 87.888 150.7588
9000.000000 86.787 150.8639
9120.000000 86.057 151.4463
9250.000000 85.404 152.3318
9380.000000 84.883 153.3150
9500.000000 84.509 154.1891
9620.000000 84.229 154.9293
9750.000000 84.026 155.4618
9880.000000 83.917 155.5789
10000.000000 83.890 155.2073
10150.000000 83.935 153.9346
10300.000000 84.035 151.5634
10440.000000 84.132 148.1819
10600.000000 84.175 142.8299
10750.000000 84.067 136.5198
10900.000000 83.746 129.4187
11060.000000 83.138 121.7052
11200.000000 82.398 115.4317
11380.000000 81.236 108.6057
11500.000000 80.382 104.9529
11720.000000 78.770 99.9904
11800.000000 78.192 98.6599
12060.000000 76.417 95.6548
12200.000000 75.548 94.6412
12410.000000 74.366 93.6337
12500.000000 73.905 93.3478
12650.000000 73.204 92.9995
12800.000000 72.592 92.7157
13150.000000 71.541 91.7581
13200.000000 71.434 91.5290
13400.000000 71.117 90.2725
13600.000000 70.972 88.3600
13800.000000 70.996 85.3939
14000.000000 71.107 80.8153
14300.000000 71.079 73.6978
14500.000000 71.581 70.5030
14750.000000 72.822 61.9560
15000.000000 74.246 48.3550
15250.000000 75.791 29.3272
15500.000000 77.119 2.6669
15750.000000 77.577 -32.2442
16000.000000 76.623 -70.4885
16250.000000 74.269 -104.2473
16500.000000 71.014 -129.7781
16750.000000 67.445 -147.0533
17000.000000 64.146 -157.2508
17250.000000 61.978 -163.7463
17500.000000 61.618 -172.1259
17750.000000 62.542 172.0219
18000.000000 63.880 146.8865
18250.000000 65.091 111.9183
18500.000000 65.757 68.2128
18750.000000 65.855 18.1169
19000.000000 65.535 -37.7531
19250.000000 64.917 -100.6456
19500.000000 64.020 -171.4717
19750.000000 62.880 116.7124
