* Measurement data measured by REW V5.20.9
* Source: USB-C to 3.5mm Headphone Jack Adapter, USB-C to 3.5mm Headphone Jack Adapter, 0, volume: 0.138
* Format: 256k Log Swept Sine, 1 sweep at -12.0 dBFS with no timing reference
* Dated: 13/10/2022 9:23:11 PM
* REW Settings:
*  C-weighting compensation: Off
*  Target level: 75.0 dB
* Note: ; 
* Measurement: MD4 00 R
* Smoothing: 1/24 octave
* Frequency Step: 1/48 octave
* Start Frequency: 1.000 Hz
*
* Freq(Hz) SPL(dB) Phase(degrees)
1.000000 73.123 19.6026
1.015000 73.275 18.0928
1.030000 73.425 16.6886
1.044000 73.562 15.4657
1.060000 73.716 14.1637
1.075000 73.858 13.0278
1.090000 73.998 11.9660
1.106000 74.144 10.9066
1.120000 74.270 10.0344
1.138000 74.429 8.9776
1.150000 74.533 8.3076
1.172000 74.722 7.1361
1.180000 74.789 6.7245
1.206000 75.005 5.4215
1.220000 75.120 4.7316
1.241000 75.289 3.6953
1.250000 75.360 3.2462
1.265000 75.479 2.4847
1.280000 75.596 1.7006
1.315000 75.865 -0.2601
1.320000 75.904 -0.5593
1.340000 76.055 -1.8153
1.360000 76.205 -3.1630
1.380000 76.352 -4.5610
1.400000 76.496 -5.9998
1.430000 76.708 -8.2179
1.450000 76.847 -9.7260
1.475000 77.016 -11.6312
1.500000 77.181 -13.5451
1.525000 77.343 -15.4535
1.550000 77.501 -17.3419
1.575000 77.655 -19.1960
1.600000 77.806 -21.0013
1.625000 77.953 -22.7435
1.650000 78.097 -24.4081
1.675000 78.238 -25.9808
1.700000 78.374 -27.4562
1.725000 78.507 -28.8558
1.750000 78.635 -30.1883
1.775000 78.760 -31.4614
1.800000 78.881 -32.6827
1.825000 78.998 -33.8597
1.850000 79.112 -35.0001
1.875000 79.222 -36.1113
1.900000 79.330 -37.2011
1.925000 79.435 -38.2770
1.950000 79.538 -39.3466
1.975000 79.638 -40.4174
2.000000 79.736 -41.4971
2.030000 79.852 -42.8121
2.060000 79.962 -44.1252
2.090000 80.069 -45.4267
2.120000 80.171 -46.7143
2.140000 80.236 -47.5638
2.180000 80.363 -49.2382
2.200000 80.424 -50.0618
2.240000 80.542 -51.6781
2.270000 80.628 -52.8606
2.300000 80.711 -54.0150
2.330000 80.793 -55.1389
2.360000 80.873 -56.2301
2.400000 80.975 -57.6423
2.430000 81.048 -58.6723
2.470000 81.140 -60.0061
2.500000 81.206 -60.9761
2.540000 81.291 -62.2282
2.580000 81.373 -63.4322
2.620000 81.453 -64.5869
2.650000 81.513 -65.4200
2.690000 81.592 -66.4860
2.720000 81.650 -67.2450
2.760000 81.725 -68.1946
2.800000 81.797 -69.0829
2.850000 81.884 -70.1240
2.900000 81.970 -71.1080
2.950000 82.055 -72.0566
3.000000 82.142 -72.9913
3.040000 82.214 -73.7423
3.070000 82.267 -74.3005
3.110000 82.339 -75.0308
3.150000 82.410 -75.7440
3.200000 82.500 -76.6091
3.250000 82.591 -77.4422
3.300000 82.683 -78.2405
3.350000 82.778 -79.0011
3.400000 82.875 -79.7130
3.450000 82.975 -80.3610
3.500000 83.077 -80.9635
3.550000 83.180 -81.5402
3.600000 83.284 -82.1112
3.650000 83.388 -82.6964
3.700000 83.493 -83.3157
3.750000 83.598 -83.9688
3.820000 83.749 -84.9088
3.870000 83.857 -85.5919
3.950000 84.029 -86.6916
4.000000 84.135 -87.3755
4.060000 84.257 -88.1852
4.120000 84.379 -88.9860
4.180000 84.499 -89.7829
4.250000 84.635 -90.7135
4.310000 84.748 -91.5166
4.370000 84.855 -92.3293
4.440000 84.973 -93.3004
4.500000 85.071 -94.1501
4.550000 85.148 -94.8613
4.620000 85.251 -95.8477
4.680000 85.335 -96.6715
4.750000 85.425 -97.5981
4.820000 85.508 -98.5073
4.870000 85.563 -99.1439
4.940000 85.635 -100.0105
5.000000 85.693 -100.7245
5.080000 85.766 -101.6279
5.150000 85.822 -102.3810
5.220000 85.874 -103.0987
5.300000 85.930 -103.8708
5.380000 85.984 -104.5860
5.450000 86.030 -105.1611
5.520000 86.074 -105.6912
5.600000 86.122 -106.2479
5.700000 86.186 -106.8805
5.800000 86.254 -107.4389
5.900000 86.324 -107.9161
6.000000 86.399 -108.3494
6.080000 86.464 -108.6884
6.150000 86.525 -108.9676
6.220000 86.588 -109.2311
6.300000 86.664 -109.5255
6.400000 86.761 -109.9045
6.500000 86.863 -110.2924
6.600000 86.968 -110.6847
6.700000 87.073 -111.0950
6.800000 87.177 -111.5347
6.900000 87.281 -111.9993
7.000000 87.383 -112.4781
7.100000 87.480 -112.9622
7.200000 87.572 -113.4607
7.300000 87.661 -113.9643
7.400000 87.745 -114.4567
7.500000 87.824 -114.9372
7.620000 87.913 -115.5024
7.750000 88.005 -116.0803
7.880000 88.093 -116.6141
8.000000 88.172 -117.0759
8.120000 88.251 -117.5122
8.250000 88.337 -117.9480
8.380000 88.425 -118.3695
8.500000 88.509 -118.7609
8.620000 88.594 -119.1473
8.750000 88.687 -119.5865
8.850000 88.759 -119.9456
9.000000 88.867 -120.5118
9.120000 88.947 -120.9962
9.250000 89.031 -121.5591
9.380000 89.108 -122.1436
9.500000 89.170 -122.6915
9.620000 89.225 -123.2547
9.750000 89.276 -123.8485
9.880000 89.317 -124.4158
10.000000 89.347 -124.9165
10.150000 89.378 -125.4728
10.300000 89.401 -125.9538
10.440000 89.422 -126.3335
10.600000 89.448 -126.6719
10.750000 89.477 -126.9259
10.900000 89.517 -127.1326
11.060000 89.569 -127.3196
11.200000 89.625 -127.5037
11.380000 89.711 -127.7629
11.500000 89.772 -127.9902
11.720000 89.894 -128.5126
11.800000 89.937 -128.7414
12.060000 90.070 -129.6336
12.200000 90.132 -130.1746
12.410000 90.208 -131.0519
12.500000 90.235 -131.4232
12.650000 90.270 -132.0471
12.800000 90.297 -132.6375
13.150000 90.336 -133.8255
13.200000 90.341 -133.9688
13.400000 90.360 -134.4830
13.600000 90.387 -134.9226
13.800000 90.425 -135.3122
14.000000 90.474 -135.6933
14.300000 90.565 -136.3237
14.500000 90.630 -136.8056
14.750000 90.709 -137.4905
15.000000 90.778 -138.2277
15.250000 90.833 -138.9680
15.500000 90.876 -139.6672
15.750000 90.910 -140.2812
16.000000 90.944 -140.7989
16.250000 90.982 -141.2379
16.500000 91.027 -141.6232
16.750000 91.082 -141.9957
17.000000 91.142 -142.3899
17.250000 91.203 -142.8157
17.500000 91.261 -143.2744
17.750000 91.312 -143.7497
18.000000 91.355 -144.2144
18.250000 91.391 -144.6516
18.500000 91.423 -145.0487
18.750000 91.453 -145.4041
19.000000 91.484 -145.7330
19.250000 91.517 -146.0501
19.500000 91.551 -146.3705
19.750000 91.583 -146.7054
20.000000 91.612 -147.0496
20.299999 91.642 -147.4613
20.600000 91.666 -147.8498
20.900000 91.689 -148.2013
21.200001 91.716 -148.5239
21.400000 91.737 -148.7384
21.799999 91.787 -149.2195
22.000000 91.813 -149.5022
22.400000 91.857 -150.1466
22.700001 91.877 -150.6558
23.000000 91.886 -151.1325
23.299999 91.891 -151.5383
23.600000 91.897 -151.8662
24.000000 91.921 -152.2396
24.299999 91.950 -152.5370
24.700001 91.992 -153.0168
25.000000 92.016 -153.4203
25.400000 92.032 -153.9293
25.799999 92.037 -154.3011
26.200001 92.051 -154.5200
26.500000 92.075 -154.6391
26.900000 92.123 -154.8422
27.200001 92.164 -155.0711
27.600000 92.209 -155.4668
28.000000 92.236 -155.8947
28.500000 92.247 -156.3489
29.000000 92.251 -156.6530
29.500000 92.264 -156.8430
30.000000 92.294 -157.0134
30.400000 92.330 -157.2070
30.700001 92.357 -157.4130
31.100000 92.388 -157.7644
31.500000 92.403 -158.1414
32.000000 92.406 -158.5098
32.500000 92.417 -158.7007
33.000000 92.460 -158.8501
33.500000 92.524 -159.1492
34.000000 92.582 -159.6269
34.500000 92.619 -160.1500
35.000000 92.645 -160.6158
35.500000 92.671 -161.0580
36.000000 92.689 -161.5326
36.500000 92.688 -161.9862
37.000000 92.673 -162.3085
37.500000 92.665 -162.4841
38.200001 92.681 -162.6983
38.700001 92.698 -162.9441
39.500000 92.708 -163.4027
40.000000 92.709 -163.6490
40.599998 92.715 -163.9202
41.200001 92.726 -164.2083
41.799999 92.740 -164.5183
42.500000 92.756 -164.8976
43.099998 92.769 -165.2257
43.700001 92.780 -165.5229
44.400002 92.797 -165.8061
45.000000 92.819 -166.0335
45.500000 92.840 -166.2443
46.200001 92.863 -166.5659
46.799999 92.875 -166.8326
47.500000 92.878 -167.0952
48.200001 92.873 -167.2414
48.700001 92.878 -167.2583
49.400002 92.912 -167.2961
50.000000 92.954 -167.5134
50.799999 92.979 -168.0386
51.500000 92.966 -168.4322
52.200001 92.954 -168.6868
53.000000 92.953 -168.9902
53.799999 92.945 -169.3114
54.500000 92.941 -169.5398
55.200001 92.944 -169.7700
56.000000 92.950 -170.0565
57.000000 92.960 -170.4019
58.000000 92.971 -170.8082
59.000000 92.965 -171.1538
60.000000 92.967 -171.3662
60.799999 92.977 -171.5458
61.500000 92.985 -171.7099
62.200001 92.994 -171.8667
63.000000 93.005 -172.0631
64.000000 93.013 -172.3323
65.000000 93.018 -172.5777
66.000000 93.025 -172.8157
67.000000 93.033 -173.0630
68.000000 93.041 -173.3187
69.000000 93.047 -173.5826
70.000000 93.048 -173.8235
71.000000 93.052 -174.0422
72.000000 93.056 -174.2632
73.000000 93.060 -174.4832
74.000000 93.065 -174.7146
75.000000 93.068 -174.9572
76.199997 93.069 -175.2306
77.500000 93.071 -175.4973
78.800003 93.074 -175.7385
80.000000 93.078 -175.9508
81.199997 93.081 -176.1698
82.500000 93.083 -176.4089
83.800003 93.085 -176.6512
85.000000 93.088 -176.8863
86.199997 93.091 -177.1315
87.500000 93.091 -177.3689
88.500000 93.092 -177.5344
90.000000 93.091 -177.7837
91.199997 93.090 -177.9823
92.500000 93.089 -178.2181
93.800003 93.090 -178.4755
95.000000 93.090 -178.7109
96.199997 93.092 -178.8995
97.500000 93.100 -179.0130
98.800003 93.130 -179.1113
100.000000 93.157 -179.4097
101.500000 93.135 -179.8238
103.000000 93.100 -179.9975
104.400002 93.083 179.8815
106.000000 93.078 179.6603
107.500000 93.068 179.3961
109.000000 93.056 179.1975
110.599998 93.051 178.9811
112.000000 93.044 178.7758
113.800003 93.037 178.5128
115.000000 93.032 178.3373
117.199997 93.028 178.0962
118.000000 93.030 178.0089
120.599998 93.027 177.6551
122.000000 93.016 177.4818
124.099998 93.008 177.2302
125.000000 93.008 177.0984
126.500000 93.009 176.8422
128.000000 93.006 176.5563
131.500000 92.974 176.1089
132.000000 92.971 176.0782
134.000000 92.968 175.9474
136.000000 92.965 175.7505
138.000000 92.958 175.5387
140.000000 92.952 175.3205
143.000000 92.938 174.9736
145.000000 92.921 174.7208
147.500000 92.898 174.3921
150.000000 92.879 174.0686
152.500000 92.865 173.7735
155.000000 92.847 173.4895
157.500000 92.823 173.2303
160.000000 92.797 172.9878
162.500000 92.766 172.7690
165.000000 92.731 172.5766
167.500000 92.700 172.3993
170.000000 92.676 172.2326
172.500000 92.654 172.0823
175.000000 92.629 171.9669
177.500000 92.599 171.8477
180.000000 92.561 171.7517
182.500000 92.525 171.7085
185.000000 92.494 171.7057
187.500000 92.463 171.8188
190.000000 92.438 172.1181
192.500000 92.437 172.5516
195.000000 92.487 173.0229
197.500000 92.603 173.3358
200.000000 92.753 173.2073
203.000000 92.884 172.4236
206.000000 92.940 171.3402
209.000000 92.943 170.2662
212.000000 92.911 169.3644
214.000000 92.879 168.8677
218.000000 92.807 168.0642
220.000000 92.770 167.7338
224.000000 92.699 167.1659
227.000000 92.649 166.7832
230.000000 92.601 166.4286
233.000000 92.553 166.1019
236.000000 92.507 165.7937
240.000000 92.447 165.3993
243.000000 92.401 165.1168
247.000000 92.342 164.7589
250.000000 92.298 164.4990
254.000000 92.238 164.1640
258.000000 92.179 163.8441
262.000000 92.119 163.5318
265.000000 92.074 163.3038
269.000000 92.013 163.0054
272.000000 91.967 162.7853
276.000000 91.906 162.4986
280.000000 91.844 162.2267
285.000000 91.765 161.8992
290.000000 91.685 161.5767
295.000000 91.605 161.2586
300.000000 91.527 160.9534
304.000000 91.458 160.7539
307.000000 91.404 160.6165
311.000000 91.334 160.4283
315.000000 91.263 160.2410
320.000000 91.173 160.0128
325.000000 91.082 159.8040
330.000000 90.990 159.6288
335.000000 90.895 159.4886
340.000000 90.801 159.3882
345.000000 90.710 159.3533
350.000000 90.626 159.3645
355.000000 90.543 159.3232
360.000000 90.467 159.2356
365.000000 90.394 159.1183
370.000000 90.314 158.9720
375.000000 90.227 158.8305
382.000000 90.095 158.6913
387.000000 89.997 158.6342
395.000000 89.842 158.5949
400.000000 89.744 158.6034
406.000000 89.625 158.6546
412.000000 89.509 158.7388
418.000000 89.395 158.8512
425.000000 89.269 159.0104
431.000000 89.165 159.1649
437.000000 89.062 159.3203
444.000000 88.938 159.4863
450.000000 88.830 159.6211
455.000000 88.743 159.7691
462.000000 88.622 160.0184
468.000000 88.513 160.2469
475.000000 88.386 160.5353
482.000000 88.260 160.8542
487.000000 88.171 161.1022
494.000000 88.047 161.4724
500.000000 87.942 161.8087
508.000000 87.808 162.3000
515.000000 87.693 162.7527
522.000000 87.580 163.2195
530.000000 87.453 163.7766
538.000000 87.329 164.3588
545.000000 87.221 164.8853
552.000000 87.117 165.4415
560.000000 87.003 166.1143
570.000000 86.864 166.9765
580.000000 86.731 167.8588
590.000000 86.600 168.7811
600.000000 86.475 169.7471
608.000000 86.384 170.5149
615.000000 86.307 171.1946
622.000000 86.233 171.8940
630.000000 86.151 172.7118
640.000000 86.054 173.7500
650.000000 85.962 174.8008
660.000000 85.871 175.8710
670.000000 85.788 176.9586
680.000000 85.713 178.0644
690.000000 85.645 179.1863
700.000000 85.585 -179.6714
710.000000 85.529 -178.5428
720.000000 85.477 -177.4121
730.000000 85.431 -176.2725
740.000000 85.390 -175.1228
750.000000 85.357 -173.9622
762.000000 85.326 -172.5989
775.000000 85.302 -171.1258
788.000000 85.287 -169.6426
800.000000 85.282 -168.2828
812.000000 85.284 -166.9369
825.000000 85.295 -165.5035
838.000000 85.314 -164.0820
850.000000 85.338 -162.7824
862.000000 85.374 -161.5180
875.000000 85.420 -160.1777
885.000000 85.459 -159.1715
900.000000 85.525 -157.7020
912.000000 85.583 -156.5628
925.000000 85.653 -155.3742
938.000000 85.729 -154.2287
950.000000 85.803 -153.2077
962.000000 85.878 -152.2387
975.000000 85.963 -151.2338
988.000000 86.050 -150.2724
1000.000000 86.133 -149.4239
1015.000000 86.243 -148.4005
1030.000000 86.353 -147.4501
1044.000000 86.454 -146.6392
1060.000000 86.568 -145.7704
1075.000000 86.674 -144.9924
1090.000000 86.776 -144.2561
1106.000000 86.882 -143.5376
1120.000000 86.974 -142.9607
1138.000000 87.086 -142.2557
1150.000000 87.156 -141.8122
1172.000000 87.281 -141.0523
1180.000000 87.323 -140.7923
1206.000000 87.452 -139.9930
1220.000000 87.517 -139.5806
1241.000000 87.602 -138.9815
1250.000000 87.635 -138.7350
1265.000000 87.687 -138.3376
1280.000000 87.732 -137.9497
1315.000000 87.811 -137.0372
1320.000000 87.820 -136.9064
1340.000000 87.846 -136.3841
1360.000000 87.860 -135.8450
1380.000000 87.859 -135.2667
1400.000000 87.838 -134.6390
1430.000000 87.771 -133.5837
1450.000000 87.700 -132.7493
1475.000000 87.577 -131.4477
1500.000000 87.414 -129.7565
1525.000000 87.223 -127.4967
1550.000000 87.023 -124.4606
1575.000000 86.856 -120.4527
1600.000000 86.800 -115.4036
1625.000000 86.949 -109.5464
1650.000000 87.366 -103.5072
1675.000000 88.043 -98.0804
1700.000000 88.894 -93.9049
1725.000000 89.809 -91.2079
1750.000000 90.702 -89.8482
1775.000000 91.526 -89.5021
1800.000000 92.263 -89.8260
1825.000000 92.919 -90.5471
1850.000000 93.504 -91.4755
1875.000000 94.034 -92.5015
1900.000000 94.520 -93.5675
1925.000000 94.976 -94.6421
1950.000000 95.409 -95.7232
1975.000000 95.826 -96.8210
2000.000000 96.233 -97.9436
2030.000000 96.711 -99.3468
2060.000000 97.182 -100.8466
2090.000000 97.648 -102.4784
2120.000000 98.108 -104.2796
2140.000000 98.410 -105.5914
2180.000000 98.997 -108.5259
2200.000000 99.279 -110.1614
2240.000000 99.810 -113.7897
2270.000000 100.170 -116.8333
2300.000000 100.486 -120.1422
2330.000000 100.751 -123.6833
2360.000000 100.955 -127.4052
2400.000000 101.122 -132.5336
2430.000000 101.165 -136.4031
2470.000000 101.115 -141.4342
2500.000000 101.002 -145.0133
2540.000000 100.765 -149.4115
2580.000000 100.448 -153.2949
2620.000000 100.076 -156.6186
2650.000000 99.773 -158.7436
2690.000000 99.351 -161.1086
2720.000000 99.030 -162.5512
2760.000000 98.605 -164.0712
2800.000000 98.190 -165.1785
2850.000000 97.694 -166.0639
2900.000000 97.228 -166.4753
2950.000000 96.795 -166.4888
3000.000000 96.397 -166.1695
3040.000000 96.103 -165.7056
3070.000000 95.897 -165.2457
3110.000000 95.643 -164.4882
3150.000000 95.416 -163.5731
3200.000000 95.174 -162.2413
3250.000000 94.988 -160.7983
3300.000000 94.853 -159.3706
3350.000000 94.753 -158.0236
3400.000000 94.674 -156.7285
3450.000000 94.613 -155.4220
3500.000000 94.574 -154.0773
3550.000000 94.565 -152.7106
3600.000000 94.588 -151.3583
3650.000000 94.643 -150.0642
3700.000000 94.727 -148.8669
3750.000000 94.834 -147.7956
3820.000000 95.010 -146.5163
3870.000000 95.148 -145.7182
3950.000000 95.390 -144.4872
4000.000000 95.573 -143.6860
4060.000000 95.853 -142.7481
4120.000000 96.214 -142.0318
4180.000000 96.651 -141.7759
4250.000000 97.233 -142.3059
4310.000000 97.766 -143.6219
4370.000000 98.305 -145.8529
4440.000000 98.898 -149.7544
4500.000000 99.323 -154.3153
4550.000000 99.573 -158.9709
4620.000000 99.686 -166.5047
4680.000000 99.513 -173.3408
4750.000000 98.994 179.1510
4820.000000 98.193 172.9427
4870.000000 97.505 169.5498
4940.000000 96.458 166.3037
5000.000000 95.539 164.8022
5080.000000 94.346 164.3502
5150.000000 93.368 165.1516
5220.000000 92.471 166.8674
5300.000000 91.559 169.7604
5380.000000 90.784 173.4905
5450.000000 90.239 177.3290
5520.000000 89.840 -178.4374
5600.000000 89.597 -173.3883
5700.000000 89.655 -167.5526
5800.000000 90.057 -163.6417
5900.000000 90.541 -162.8367
6000.000000 90.769 -164.7226
6080.000000 90.655 -166.8056
6150.000000 90.368 -168.1298
6220.000000 89.978 -168.6039
6300.000000 89.494 -168.0693
6400.000000 88.938 -166.0977
6500.000000 88.497 -163.1563
6600.000000 88.189 -159.6792
6700.000000 88.012 -155.9529
6800.000000 87.955 -152.1491
6900.000000 88.009 -148.3800
7000.000000 88.171 -144.7367
7100.000000 88.436 -141.3091
7200.000000 88.797 -138.1798
7300.000000 89.250 -135.3856
7400.000000 89.803 -132.9517
7500.000000 90.475 -130.9992
7620.000000 91.462 -129.6849
7750.000000 92.724 -130.3817
7880.000000 94.035 -134.4931
8000.000000 95.007 -142.0838
8120.000000 95.440 -152.5871
8250.000000 95.121 -164.1696
8380.000000 94.143 -172.3926
8500.000000 93.001 -176.0108
8620.000000 91.882 -176.3564
8750.000000 90.903 -173.5239
8850.000000 90.497 -169.8403
9000.000000 90.618 -164.3408
9120.000000 91.202 -162.0130
9250.000000 91.981 -162.7119
9380.000000 92.649 -166.2878
9500.000000 93.104 -171.1895
9620.000000 93.437 -177.2219
9750.000000 93.653 174.6780
9880.000000 93.592 164.6600
10000.000000 93.134 154.4441
10150.000000 91.948 142.6938
10300.000000 90.218 134.0786
10440.000000 88.287 129.8765
10600.000000 85.987 129.9744
10750.000000 84.070 133.9044
10900.000000 82.620 140.2145
11060.000000 81.741 147.9749
11200.000000 81.544 154.1217
11380.000000 81.810 159.4916
11500.000000 82.130 161.4388
11720.000000 82.877 162.6401
11800.000000 83.204 162.3624
12060.000000 84.366 158.2359
12200.000000 84.927 153.9288
12410.000000 85.516 145.6154
12500.000000 85.665 141.7828
12650.000000 85.804 135.5467
12800.000000 85.878 129.7762
13150.000000 86.161 116.6779
13200.000000 86.205 114.5803
13400.000000 86.267 105.6130
13600.000000 86.130 96.9948
13800.000000 86.054 88.9887
14000.000000 86.003 79.2422
14300.000000 85.066 65.4554
14500.000000 84.470 61.8550
14750.000000 85.170 58.0353
15000.000000 86.816 44.7031
15250.000000 87.638 19.1851
15500.000000 86.937 -8.7361
15750.000000 85.467 -30.9259
16000.000000 84.273 -49.7128
16250.000000 83.727 -69.0413
16500.000000 83.769 -91.9221
16750.000000 84.062 -119.6379
17000.000000 84.342 -152.0647
17250.000000 84.366 171.5049
17500.000000 83.983 133.0385
17750.000000 83.283 94.4454
18000.000000 82.498 55.8089
18250.000000 81.766 15.6434
18500.000000 81.010 -27.5549
18750.000000 80.094 -74.1502
19000.000000 79.073 -124.5530
19250.000000 78.113 178.9824
19500.000000 77.238 113.8716
19750.000000 76.351 45.4232
