* Measurement data measured by REW V5.20.9
* Source: Headset (USB-C to 3.5mm Headphone Jack Adapter), MICROPHONE (Master Volume), L, volume: 0.800. Timing signal peak level -19.9 dBFS, measurement signal peak level -17.0 dBFS
* Format: 256k Log Swept Sine, 1 sweep at -12.0 dBFS using an acoustic timing reference
* Dated: 16/07/2023 5:00:14 PM
* REW Settings:
*  C-weighting compensation: Off
*  Target level: 75.0 dB
* Note: ; Delay 0.1129 ms (39 mm, 1.52 in) using estimated IR delay relative to Acoustic reference on SPEAKER L with no timing offset
* Measurement: MEST3 L
* Smoothing: 1/24 octave
* Frequency Step: 1/48 octave
* Start Frequency: 1.000 Hz
*
* Freq(Hz) SPL(dB) Phase(degrees)
1.000000 83.373 -2.2854
1.015000 83.534 -3.4193
1.030000 83.693 -4.5270
1.044000 83.838 -5.5339
1.060000 84.000 -6.6488
1.075000 84.149 -7.6556
1.090000 84.295 -8.6211
1.106000 84.447 -9.6035
1.120000 84.576 -10.4317
1.138000 84.737 -11.4589
1.150000 84.842 -12.1217
1.172000 85.027 -13.2947
1.180000 85.093 -13.7086
1.206000 85.300 -15.0126
1.220000 85.407 -15.6909
1.241000 85.564 -16.6815
1.250000 85.630 -17.0973
1.265000 85.738 -17.7801
1.280000 85.843 -18.4518
1.315000 86.082 -19.9872
1.320000 86.115 -20.2039
1.340000 86.247 -21.0670
1.360000 86.376 -21.9276
1.380000 86.503 -22.7902
1.400000 86.628 -23.6593
1.430000 86.814 -24.9853
1.450000 86.938 -25.8908
1.475000 87.091 -27.0528
1.500000 87.241 -28.2346
1.525000 87.386 -29.4285
1.550000 87.527 -30.6301
1.575000 87.664 -31.8351
1.600000 87.797 -33.0392
1.625000 87.927 -34.2380
1.650000 88.053 -35.4273
1.675000 88.176 -36.6026
1.700000 88.297 -37.7598
1.725000 88.415 -38.8945
1.750000 88.531 -40.0023
1.775000 88.644 -41.0789
1.800000 88.756 -42.1200
1.825000 88.867 -43.1213
1.850000 88.975 -44.0808
1.875000 89.080 -45.0032
1.900000 89.182 -45.8919
1.925000 89.280 -46.7499
1.950000 89.375 -47.5803
1.975000 89.468 -48.3862
2.000000 89.559 -49.1708
2.030000 89.666 -50.0885
2.060000 89.771 -50.9852
2.090000 89.874 -51.8663
2.120000 89.976 -52.7372
2.140000 90.045 -53.3147
2.180000 90.181 -54.4697
2.200000 90.250 -55.0501
2.240000 90.386 -56.1921
2.270000 90.486 -57.0259
2.300000 90.584 -57.8429
2.330000 90.681 -58.6455
2.360000 90.777 -59.4361
2.400000 90.904 -60.4755
2.430000 90.998 -61.2473
2.470000 91.124 -62.2703
2.500000 91.218 -63.0362
2.540000 91.344 -64.0600
2.580000 91.471 -65.0892
2.620000 91.599 -66.1045
2.650000 91.695 -66.8562
2.690000 91.823 -67.8499
2.720000 91.918 -68.5915
2.760000 92.045 -69.5797
2.800000 92.171 -70.5721
2.850000 92.327 -71.8265
2.900000 92.480 -73.1060
2.950000 92.630 -74.4174
3.000000 92.779 -75.7383
3.040000 92.899 -76.8012
3.070000 92.988 -77.6044
3.110000 93.105 -78.6861
3.150000 93.219 -79.7836
3.200000 93.357 -81.1828
3.250000 93.489 -82.6192
3.300000 93.613 -84.0997
3.350000 93.731 -85.6317
3.400000 93.845 -87.2105
3.450000 93.953 -88.8262
3.500000 94.055 -90.4691
3.550000 94.149 -92.1293
3.600000 94.233 -93.7969
3.650000 94.307 -95.4623
3.700000 94.370 -97.1288
3.750000 94.425 -98.8184
3.820000 94.488 -101.2080
3.870000 94.521 -102.9200
3.950000 94.552 -105.6431
4.000000 94.556 -107.3211
4.060000 94.545 -109.3096
4.120000 94.518 -111.3224
4.180000 94.475 -113.3356
4.250000 94.405 -115.6368
4.310000 94.327 -117.5274
4.370000 94.233 -119.3045
4.440000 94.101 -121.2347
4.500000 93.966 -122.8478
4.550000 93.840 -124.1348
4.620000 93.648 -125.7927
4.680000 93.473 -127.0280
4.750000 93.264 -128.1846
4.820000 93.038 -129.0265
4.870000 92.858 -129.4792
4.940000 92.595 -129.8936
5.000000 92.374 -130.0332
5.080000 92.111 -129.8901
5.150000 91.928 -129.4260
5.220000 91.762 -128.5213
5.300000 91.596 -127.0671
5.380000 91.483 -125.3811
5.450000 91.448 -123.8930
5.520000 91.491 -122.5131
5.600000 91.640 -120.7818
5.700000 91.937 -118.5402
5.800000 92.309 -116.6163
5.900000 92.714 -115.3978
6.000000 93.197 -114.7591
6.080000 93.618 -114.5896
6.150000 93.985 -114.6723
6.220000 94.330 -114.9562
6.300000 94.698 -115.5861
6.400000 95.147 -116.8423
6.500000 95.569 -118.4098
6.600000 95.950 -120.0647
6.700000 96.285 -121.8568
6.800000 96.582 -123.8226
6.900000 96.845 -125.8210
7.000000 97.078 -127.7339
7.100000 97.274 -129.6395
7.200000 97.441 -131.5146
7.300000 97.587 -133.2969
7.400000 97.717 -134.9505
7.500000 97.823 -136.5079
7.620000 97.933 -138.2526
7.750000 98.045 -139.9827
7.880000 98.143 -141.5271
8.000000 98.225 -142.8481
8.120000 98.305 -144.1204
8.250000 98.390 -145.4113
8.380000 98.464 -146.6528
8.500000 98.521 -147.7970
8.620000 98.570 -148.9292
8.750000 98.605 -150.1077
8.850000 98.614 -150.9714
9.000000 98.603 -152.2303
9.120000 98.574 -153.1119
9.250000 98.521 -153.8788
9.380000 98.444 -154.4866
9.500000 98.371 -154.8477
9.620000 98.298 -154.9640
9.750000 98.216 -154.8473
9.880000 98.158 -154.5690
10.000000 98.138 -154.1492
10.150000 98.146 -153.4453
10.300000 98.204 -152.8553
10.440000 98.312 -152.3691
10.600000 98.466 -152.0572
10.750000 98.627 -152.1780
10.900000 98.800 -152.6257
11.060000 98.949 -153.4704
11.200000 99.056 -154.5510
11.380000 99.136 -156.1472
11.500000 99.146 -157.3372
11.720000 99.086 -159.5527
11.800000 99.038 -160.2878
12.060000 98.799 -162.4391
12.200000 98.642 -163.2590
12.410000 98.379 -164.0887
12.500000 98.278 -164.3018
12.650000 98.116 -164.4279
12.800000 97.979 -164.4324
13.150000 97.807 -164.3053
13.200000 97.799 -164.3316
13.400000 97.791 -164.5670
13.600000 97.787 -165.0787
13.800000 97.796 -165.9270
14.000000 97.786 -166.9408
14.300000 97.729 -168.6532
14.500000 97.664 -169.7133
14.750000 97.580 -170.8547
15.000000 97.508 -171.7640
15.250000 97.475 -172.5245
15.500000 97.478 -173.2780
15.750000 97.513 -174.0943
16.000000 97.558 -175.0426
16.250000 97.597 -176.0446
16.500000 97.624 -177.0393
16.750000 97.636 -177.9216
17.000000 97.646 -178.6380
17.250000 97.660 -179.2011
17.500000 97.687 -179.6404
17.750000 97.726 179.9495
18.000000 97.770 179.5329
18.250000 97.811 179.0718
18.500000 97.839 178.5858
18.750000 97.851 178.1126
19.000000 97.845 177.6877
19.250000 97.827 177.3539
19.500000 97.803 177.1031
19.750000 97.778 176.9267
20.000000 97.758 176.7778
20.299999 97.740 176.5737
20.600000 97.726 176.2863
20.900000 97.710 175.8778
21.200001 97.683 175.3446
21.400000 97.657 174.9392
21.799999 97.582 174.0703
22.000000 97.535 173.6418
22.400000 97.435 172.8602
22.700001 97.366 172.3528
23.000000 97.314 171.8851
23.299999 97.281 171.3977
23.600000 97.267 170.8418
24.000000 97.261 169.9550
24.299999 97.256 169.2062
24.700001 97.237 168.1933
25.000000 97.214 167.5049
25.400000 97.180 166.7557
25.799999 97.157 166.2012
26.200001 97.154 165.7678
26.500000 97.161 165.4613
26.900000 97.177 165.0206
27.200001 97.185 164.6541
27.600000 97.179 164.1422
28.000000 97.153 163.6649
28.500000 97.100 163.1860
29.000000 97.048 162.7884
29.500000 97.004 162.3212
30.000000 96.954 161.7030
30.400000 96.905 161.1514
30.700001 96.870 160.7375
31.100000 96.837 160.1527
31.500000 96.826 159.4128
32.000000 96.819 158.0788
32.500000 96.757 156.3590
33.000000 96.603 154.7771
33.500000 96.396 153.9150
34.000000 96.242 153.8746
34.500000 96.216 154.0768
35.000000 96.277 153.8460
35.500000 96.312 153.0471
36.000000 96.251 152.2148
36.500000 96.127 151.9537
37.000000 96.035 152.3478
37.500000 96.033 152.9149
38.200001 96.112 153.1122
38.700001 96.148 152.8338
39.500000 96.161 152.2740
40.000000 96.169 151.7908
40.599998 96.152 150.9149
41.200001 96.065 150.0036
41.799999 95.941 149.4630
42.500000 95.836 149.2235
43.099998 95.788 148.9398
43.700001 95.738 148.5025
44.400002 95.661 148.0280
45.000000 95.601 147.6981
45.500000 95.560 147.3840
46.200001 95.498 146.8560
46.799999 95.436 146.4157
47.500000 95.372 145.9188
48.200001 95.312 145.2997
48.700001 95.254 144.8279
49.400002 95.155 144.3674
50.000000 95.094 144.1781
50.799999 95.062 143.8101
51.500000 95.026 143.2278
52.200001 94.955 142.6938
53.000000 94.873 142.2969
53.799999 94.807 141.8964
54.500000 94.745 141.5094
55.200001 94.680 141.1662
56.000000 94.616 140.7808
57.000000 94.538 140.2505
58.000000 94.462 139.7158
59.000000 94.379 139.1409
60.000000 94.275 138.6496
60.799999 94.193 138.3844
61.500000 94.135 138.1560
62.200001 94.081 137.8527
63.000000 94.014 137.4383
64.000000 93.921 136.9049
65.000000 93.819 136.4118
66.000000 93.720 136.1135
67.000000 93.660 135.8737
68.000000 93.608 135.4578
69.000000 93.537 135.0351
70.000000 93.463 134.6575
71.000000 93.385 134.2634
72.000000 93.306 133.8832
73.000000 93.227 133.5041
74.000000 93.146 133.1638
75.000000 93.071 132.8990
76.199997 92.995 132.5721
77.500000 92.906 132.1883
78.800003 92.812 131.8158
80.000000 92.720 131.4633
81.199997 92.627 131.1558
82.500000 92.533 130.8521
83.800003 92.449 130.5776
85.000000 92.378 130.2741
86.199997 92.297 129.9628
87.500000 92.212 129.6715
88.500000 92.150 129.4211
90.000000 92.059 129.0192
91.199997 91.987 128.7112
92.500000 91.912 128.4335
93.800003 91.840 128.2156
95.000000 91.772 128.0411
96.199997 91.691 127.9047
97.500000 91.591 127.8556
98.800003 91.498 127.9467
100.000000 91.456 127.9119
101.500000 91.400 127.2888
103.000000 91.291 126.6219
104.400002 91.198 126.2208
106.000000 91.118 125.8909
107.500000 91.051 125.6258
109.000000 90.977 125.3759
110.599998 90.886 125.1062
112.000000 90.803 124.8704
113.800003 90.704 124.5832
115.000000 90.645 124.3997
117.199997 90.538 124.0720
118.000000 90.497 123.9537
120.599998 90.362 123.5698
122.000000 90.291 123.3763
124.099998 90.187 123.1062
125.000000 90.142 123.0012
126.500000 90.066 122.8274
128.000000 89.990 122.6314
131.500000 89.817 122.0508
132.000000 89.791 121.9706
134.000000 89.686 121.8193
136.000000 89.602 121.7955
138.000000 89.518 121.7162
140.000000 89.425 121.5870
143.000000 89.294 121.3966
145.000000 89.216 121.3436
147.500000 89.117 121.5113
150.000000 89.032 121.6993
152.500000 88.917 121.5448
155.000000 88.800 121.4389
157.500000 88.729 121.4499
160.000000 88.683 121.5490
162.500000 88.630 121.6301
165.000000 88.573 121.6097
167.500000 88.539 121.4470
170.000000 88.516 121.1682
172.500000 88.477 120.9109
175.000000 88.423 120.6812
177.500000 88.369 120.4614
180.000000 88.317 120.2807
182.500000 88.261 120.1166
185.000000 88.204 119.9094
187.500000 88.146 119.7016
190.000000 88.079 119.5575
192.500000 88.013 119.4031
195.000000 87.984 119.1736
197.500000 87.998 118.8946
200.000000 87.974 118.8269
203.000000 87.893 119.3172
206.000000 87.846 119.5760
209.000000 87.834 119.4095
212.000000 87.831 119.1186
214.000000 87.824 118.8685
218.000000 87.793 118.2105
220.000000 87.770 117.8773
224.000000 87.711 117.2767
227.000000 87.661 116.8990
230.000000 87.612 116.6157
233.000000 87.561 116.3401
236.000000 87.500 116.0118
240.000000 87.423 115.6083
243.000000 87.371 115.3835
247.000000 87.297 115.1732
250.000000 87.247 115.0107
254.000000 87.197 114.7122
258.000000 87.144 114.4309
262.000000 87.090 114.1288
265.000000 87.054 113.8997
269.000000 87.007 113.6827
272.000000 86.972 113.5532
276.000000 86.925 113.3811
280.000000 86.879 113.1794
285.000000 86.829 112.9011
290.000000 86.785 112.6501
295.000000 86.742 112.4177
300.000000 86.700 112.1553
304.000000 86.668 111.9419
307.000000 86.646 111.8033
311.000000 86.620 111.6385
315.000000 86.597 111.4667
320.000000 86.571 111.2212
325.000000 86.544 110.9808
330.000000 86.517 110.7484
335.000000 86.493 110.5173
340.000000 86.471 110.2969
345.000000 86.451 110.1018
350.000000 86.430 109.9151
355.000000 86.421 109.6223
360.000000 86.416 109.3219
365.000000 86.409 109.0695
370.000000 86.401 108.8447
375.000000 86.392 108.6080
382.000000 86.381 108.2761
387.000000 86.374 108.0347
395.000000 86.373 107.6353
400.000000 86.375 107.3871
406.000000 86.373 107.0905
412.000000 86.373 106.8052
418.000000 86.377 106.5208
425.000000 86.385 106.1650
431.000000 86.392 105.8646
437.000000 86.399 105.5770
444.000000 86.403 105.2230
450.000000 86.406 104.9003
455.000000 86.420 104.6640
462.000000 86.444 104.3405
468.000000 86.461 104.0456
475.000000 86.479 103.6937
482.000000 86.498 103.3338
487.000000 86.514 103.0775
494.000000 86.536 102.7242
500.000000 86.554 102.4224
508.000000 86.579 102.0201
515.000000 86.601 101.6743
522.000000 86.624 101.3208
530.000000 86.653 100.9059
538.000000 86.682 100.5034
545.000000 86.710 100.1736
552.000000 86.739 99.8276
560.000000 86.766 99.3949
570.000000 86.801 98.8802
580.000000 86.834 98.3795
590.000000 86.870 97.8992
600.000000 86.909 97.4654
608.000000 86.942 97.1266
615.000000 86.972 96.8316
622.000000 87.005 96.5448
630.000000 87.046 96.2263
640.000000 87.104 95.8113
650.000000 87.172 95.3661
660.000000 87.239 94.9389
670.000000 87.319 94.4198
680.000000 87.399 93.6996
690.000000 87.439 92.8742
700.000000 87.452 92.2155
710.000000 87.472 91.7444
720.000000 87.503 91.3351
730.000000 87.547 90.9165
740.000000 87.596 90.4447
750.000000 87.635 89.9190
762.000000 87.667 89.2945
775.000000 87.703 88.7289
788.000000 87.745 88.2243
800.000000 87.787 87.7802
812.000000 87.832 87.3448
825.000000 87.885 86.8687
838.000000 87.942 86.4151
850.000000 87.996 85.9943
862.000000 88.050 85.5429
875.000000 88.109 85.0762
885.000000 88.157 84.7294
900.000000 88.232 84.2018
912.000000 88.293 83.7804
925.000000 88.359 83.3206
938.000000 88.426 82.8547
950.000000 88.490 82.4090
962.000000 88.555 81.9391
975.000000 88.627 81.4125
988.000000 88.698 80.8828
1000.000000 88.763 80.3925
1015.000000 88.842 79.7596
1030.000000 88.918 79.0894
1044.000000 88.986 78.4501
1060.000000 89.060 77.7106
1075.000000 89.127 76.9974
1090.000000 89.190 76.2804
1106.000000 89.254 75.5078
1120.000000 89.305 74.8229
1138.000000 89.363 73.9432
1150.000000 89.398 73.3641
1172.000000 89.459 72.3110
1180.000000 89.479 71.9304
1206.000000 89.535 70.7117
1220.000000 89.560 70.0682
1241.000000 89.591 69.1256
1250.000000 89.602 68.7323
1265.000000 89.616 68.0916
1280.000000 89.627 67.4659
1315.000000 89.647 66.0731
1320.000000 89.649 65.8834
1340.000000 89.652 65.1544
1360.000000 89.654 64.4506
1380.000000 89.654 63.7641
1400.000000 89.651 63.1194
1430.000000 89.643 62.2293
1450.000000 89.636 61.6771
1475.000000 89.626 61.0160
1500.000000 89.614 60.4122
1525.000000 89.603 59.8493
1550.000000 89.592 59.3246
1575.000000 89.582 58.8410
1600.000000 89.572 58.3897
1625.000000 89.562 57.9706
1650.000000 89.556 57.5817
1675.000000 89.552 57.2226
1700.000000 89.549 56.8804
1725.000000 89.547 56.5579
1750.000000 89.546 56.2617
1775.000000 89.549 55.9797
1800.000000 89.556 55.7050
1825.000000 89.564 55.4400
1850.000000 89.575 55.1876
1875.000000 89.589 54.9406
1900.000000 89.604 54.6891
1925.000000 89.622 54.4363
1950.000000 89.642 54.1840
1975.000000 89.663 53.9242
2000.000000 89.687 53.6558
2030.000000 89.718 53.3275
2060.000000 89.753 52.9866
2090.000000 89.790 52.6205
2120.000000 89.829 52.2352
2140.000000 89.855 51.9694
2180.000000 89.909 51.4022
2200.000000 89.937 51.0954
2240.000000 89.993 50.4369
2270.000000 90.034 49.9072
2300.000000 90.075 49.3416
2330.000000 90.114 48.7390
2360.000000 90.152 48.1049
2400.000000 90.200 47.2069
2430.000000 90.231 46.4881
2470.000000 90.265 45.4779
2500.000000 90.287 44.6867
2540.000000 90.307 43.5872
2580.000000 90.318 42.4464
2620.000000 90.319 41.2773
2650.000000 90.314 40.3857
2690.000000 90.297 39.1843
2720.000000 90.280 38.2847
2760.000000 90.253 37.0995
2800.000000 90.224 35.9193
2850.000000 90.189 34.4351
2900.000000 90.157 32.9081
2950.000000 90.130 31.2957
3000.000000 90.107 29.5553
3040.000000 90.087 28.0397
3070.000000 90.066 26.8289
3110.000000 90.030 25.1277
3150.000000 89.983 23.3447
3200.000000 89.908 21.0292
3250.000000 89.813 18.6279
3300.000000 89.701 16.1711
3350.000000 89.574 13.6619
3400.000000 89.436 11.1053
3450.000000 89.291 8.5014
3500.000000 89.141 5.8510
3550.000000 88.990 3.1495
3600.000000 88.837 0.3600
3650.000000 88.684 -2.5151
3700.000000 88.534 -5.4781
3750.000000 88.389 -8.5458
3820.000000 88.196 -13.0424
3870.000000 88.066 -16.4037
3950.000000 87.882 -22.0343
4000.000000 87.786 -25.7141
4060.000000 87.690 -30.3173
4120.000000 87.619 -35.1456
4180.000000 87.572 -40.2115
4250.000000 87.521 -46.3099
4310.000000 87.504 -51.2778
4370.000000 87.613 -56.2294
4440.000000 87.829 -62.9469
4500.000000 87.987 -69.3379
4550.000000 88.080 -74.9016
4620.000000 88.123 -82.8182
4680.000000 88.058 -89.3701
4750.000000 87.876 -96.2174
4820.000000 87.637 -101.8300
4870.000000 87.473 -105.0336
4940.000000 87.298 -108.5522
5000.000000 87.223 -110.8770
5080.000000 87.235 -113.3111
5150.000000 87.344 -115.0525
5220.000000 87.523 -116.5829
5300.000000 87.795 -118.1836
5380.000000 88.122 -119.6807
5450.000000 88.443 -120.9377
5520.000000 88.792 -122.1890
5600.000000 89.217 -123.6500
5700.000000 89.776 -125.6146
5800.000000 90.348 -127.8409
5900.000000 90.904 -130.3488
6000.000000 91.422 -133.0793
6080.000000 91.800 -135.3541
6150.000000 92.106 -137.3575
6220.000000 92.393 -139.3363
6300.000000 92.701 -141.5409
6400.000000 93.071 -144.2037
6500.000000 93.438 -146.7993
6600.000000 93.813 -149.4298
6700.000000 94.196 -152.2516
6800.000000 94.572 -155.4055
6900.000000 94.919 -158.9209
7000.000000 95.233 -162.7670
7100.000000 95.519 -167.0602
7200.000000 95.748 -172.0394
7300.000000 95.856 -177.7693
7400.000000 95.785 176.0103
7500.000000 95.503 169.7767
7620.000000 94.899 162.9785
7750.000000 93.987 157.1382
7880.000000 92.913 153.2172
8000.000000 91.869 151.2565
8120.000000 90.840 150.6651
8250.000000 89.784 151.2759
8380.000000 88.815 152.9039
8500.000000 88.007 155.0823
8620.000000 87.284 157.7349
8750.000000 86.593 160.9962
8850.000000 86.122 163.7039
9000.000000 85.508 168.0002
9120.000000 85.095 171.5589
9250.000000 84.721 175.4614
9380.000000 84.421 179.3375
9500.000000 84.204 -177.1887
9620.000000 84.035 -173.8674
9750.000000 83.892 -170.5065
9880.000000 83.771 -167.4182
10000.000000 83.665 -164.7641
10150.000000 83.527 -161.5971
10300.000000 83.376 -158.4260
10440.000000 83.230 -155.3462
10600.000000 83.080 -151.6147
10750.000000 82.983 -147.8774
10900.000000 82.950 -143.9493
11060.000000 83.008 -139.7479
11200.000000 83.137 -136.2274
11380.000000 83.409 -132.0364
11500.000000 83.658 -129.5263
11720.000000 84.240 -125.8179
11800.000000 84.482 -124.8350
12060.000000 85.323 -123.3058
12200.000000 85.765 -123.6223
12410.000000 86.325 -125.5100
12500.000000 86.510 -126.7483
12650.000000 86.729 -129.1945
12800.000000 86.834 -131.8793
13150.000000 86.687 -137.6893
13200.000000 86.634 -138.3772
13400.000000 86.386 -140.6406
13600.000000 86.133 -142.0979
13800.000000 85.950 -142.8767
14000.000000 85.911 -143.1994
14300.000000 86.291 -143.8237
14500.000000 86.924 -145.5454
14750.000000 88.114 -151.4584
15000.000000 89.320 -164.7964
15250.000000 89.655 173.4751
15500.000000 88.489 150.1244
15750.000000 86.077 133.5451
16000.000000 83.235 124.7203
16250.000000 80.605 120.5310
16500.000000 78.397 118.3607
16750.000000 76.583 116.7842
17000.000000 75.088 115.0311
17250.000000 73.836 112.5594
17500.000000 72.760 109.0264
17750.000000 71.807 104.0898
18000.000000 70.914 97.4438
18250.000000 69.978 89.1521
18500.000000 68.927 79.7076
18750.000000 67.762 69.4713
19000.000000 66.507 58.5465
19250.000000 65.186 47.1728
19500.000000 63.880 35.4434
19750.000000 62.769 23.9479
