* Measurement data measured by REW V5.20.9
* Source: Headset (USB-C to 3.5mm Headphone Jack Adapter), MICROPHONE (Master Volume), L, volume: 0.800. Timing signal peak level -21.0 dBFS, measurement signal peak level -18.9 dBFS
* Format: 256k Log Swept Sine, 1 sweep at -12.0 dBFS using an acoustic timing reference
* Dated: 16/07/2023 4:59:04 PM
* REW Settings:
*  C-weighting compensation: Off
*  Target level: 75.0 dB
* Note: ; Delay 0.1169 ms (40 mm, 1.58 in) using estimated IR delay relative to Acoustic reference on SPEAKER R with no timing offset
* Measurement: MEST3 R
* Smoothing: 1/24 octave
* Frequency Step: 1/48 octave
* Start Frequency: 1.000 Hz
*
* Freq(Hz) SPL(dB) Phase(degrees)
1.000000 79.224 8.8024
1.015000 79.455 6.9114
1.030000 79.683 5.0962
1.044000 79.892 3.4770
1.060000 80.126 1.7232
1.075000 80.342 0.1805
1.090000 80.552 -1.2562
1.106000 80.771 -2.6629
1.120000 80.959 -3.7820
1.138000 81.197 -5.0769
1.150000 81.352 -5.8569
1.172000 81.633 -7.1300
1.180000 81.733 -7.5468
1.206000 82.053 -8.7521
1.220000 82.222 -9.3178
1.241000 82.470 -10.0755
1.250000 82.575 -10.3718
1.265000 82.749 -10.8346
1.280000 82.919 -11.2658
1.315000 83.309 -12.1967
1.320000 83.363 -12.3256
1.340000 83.580 -12.8439
1.360000 83.793 -13.3810
1.380000 84.004 -13.9571
1.400000 84.211 -14.5921
1.430000 84.517 -15.6987
1.450000 84.719 -16.5685
1.475000 84.967 -17.8290
1.500000 85.210 -19.2093
1.525000 85.447 -20.6756
1.550000 85.678 -22.2129
1.575000 85.904 -23.8062
1.600000 86.124 -25.4405
1.625000 86.339 -27.1008
1.650000 86.550 -28.7721
1.675000 86.756 -30.4395
1.700000 86.958 -32.0880
1.725000 87.156 -33.7025
1.750000 87.350 -35.2681
1.775000 87.541 -36.7698
1.800000 87.729 -38.1926
1.825000 87.913 -39.5215
1.850000 88.095 -40.7531
1.875000 88.272 -41.9119
1.900000 88.445 -43.0066
1.925000 88.613 -44.0452
1.950000 88.777 -45.0356
1.975000 88.938 -45.9857
2.000000 89.095 -46.9034
2.030000 89.278 -47.9730
2.060000 89.457 -49.0210
2.090000 89.632 -50.0610
2.120000 89.802 -51.1068
2.140000 89.914 -51.8138
2.180000 90.133 -53.2699
2.200000 90.240 -54.0269
2.240000 90.449 -55.5670
2.270000 90.600 -56.7298
2.300000 90.746 -57.8962
2.330000 90.888 -59.0634
2.360000 91.027 -60.2285
2.400000 91.205 -61.7740
2.430000 91.334 -62.9235
2.470000 91.502 -64.4381
2.500000 91.624 -65.5567
2.540000 91.783 -67.0200
2.580000 91.937 -68.4475
2.620000 92.085 -69.8559
2.650000 92.192 -70.9011
2.690000 92.329 -72.2775
2.720000 92.428 -73.2953
2.760000 92.556 -74.6306
2.800000 92.679 -75.9382
2.850000 92.827 -77.5291
2.900000 92.969 -79.0662
2.950000 93.105 -80.5420
3.000000 93.235 -81.9436
3.040000 93.333 -83.0179
3.070000 93.404 -83.8013
3.110000 93.495 -84.8220
3.150000 93.583 -85.8224
3.200000 93.688 -87.0558
3.250000 93.789 -88.2841
3.300000 93.888 -89.5218
3.350000 93.982 -90.7749
3.400000 94.070 -92.0321
3.450000 94.154 -93.2808
3.500000 94.234 -94.5086
3.550000 94.311 -95.7030
3.600000 94.386 -96.8516
3.650000 94.459 -97.9419
3.700000 94.531 -98.9619
3.750000 94.599 -99.9140
3.820000 94.690 -101.1606
3.870000 94.752 -102.0093
3.950000 94.848 -103.3353
4.000000 94.907 -104.1671
4.060000 94.977 -105.1874
4.120000 95.045 -106.2133
4.180000 95.110 -107.2330
4.250000 95.185 -108.4025
4.310000 95.248 -109.3774
4.370000 95.309 -110.3174
4.440000 95.379 -111.3580
4.500000 95.439 -112.2023
4.550000 95.487 -112.8805
4.620000 95.553 -113.8049
4.680000 95.609 -114.5863
4.750000 95.671 -115.5013
4.820000 95.732 -116.4273
4.870000 95.774 -117.0878
4.940000 95.831 -118.0062
5.000000 95.879 -118.7831
5.080000 95.940 -119.7972
5.150000 95.990 -120.6578
5.220000 96.038 -121.4963
5.300000 96.090 -122.4308
5.380000 96.140 -123.3417
5.450000 96.181 -124.1208
5.520000 96.220 -124.8843
5.600000 96.262 -125.7370
5.700000 96.310 -126.7719
5.800000 96.356 -127.7719
5.900000 96.401 -128.7356
6.000000 96.442 -129.6615
6.080000 96.474 -130.3771
6.150000 96.502 -130.9867
6.220000 96.530 -131.5822
6.300000 96.562 -132.2417
6.400000 96.601 -133.0331
6.500000 96.640 -133.8019
6.600000 96.680 -134.5636
6.700000 96.721 -135.3171
6.800000 96.761 -136.0582
6.900000 96.801 -136.7914
7.000000 96.841 -137.5205
7.100000 96.879 -138.2429
7.200000 96.917 -138.9595
7.300000 96.953 -139.6727
7.400000 96.986 -140.3861
7.500000 97.016 -141.0996
7.620000 97.050 -141.9451
7.750000 97.082 -142.8362
7.880000 97.110 -143.7069
8.000000 97.132 -144.4870
8.120000 97.151 -145.2375
8.250000 97.169 -146.0196
8.380000 97.186 -146.7710
8.500000 97.202 -147.4362
8.620000 97.217 -148.0723
8.750000 97.234 -148.7404
8.850000 97.248 -149.2449
9.000000 97.271 -149.9787
9.120000 97.289 -150.5579
9.250000 97.311 -151.1872
9.380000 97.332 -151.8131
9.500000 97.352 -152.3905
9.620000 97.370 -152.9702
9.750000 97.389 -153.5993
9.880000 97.405 -154.2227
10.000000 97.418 -154.7927
10.150000 97.432 -155.4973
10.300000 97.443 -156.1796
10.440000 97.451 -156.7959
10.600000 97.460 -157.4765
10.750000 97.467 -158.0883
10.900000 97.475 -158.6778
11.060000 97.485 -159.2922
11.200000 97.495 -159.8151
11.380000 97.508 -160.4822
11.500000 97.518 -160.9268
11.720000 97.536 -161.7400
11.800000 97.542 -162.0369
12.060000 97.559 -162.9998
12.200000 97.566 -163.5092
12.410000 97.574 -164.2584
12.500000 97.576 -164.5681
12.650000 97.580 -165.0702
12.800000 97.583 -165.5553
13.150000 97.595 -166.6176
13.200000 97.597 -166.7657
13.400000 97.609 -167.3464
13.600000 97.624 -167.9306
13.800000 97.641 -168.5266
14.000000 97.658 -169.1401
14.300000 97.679 -170.0907
14.500000 97.689 -170.7337
14.750000 97.695 -171.5249
15.000000 97.695 -172.2915
15.250000 97.693 -173.0206
15.500000 97.691 -173.7234
15.750000 97.688 -174.4082
16.000000 97.686 -175.0938
16.250000 97.681 -175.7838
16.500000 97.671 -176.4727
16.750000 97.654 -177.1466
17.000000 97.631 -177.7785
17.250000 97.606 -178.3592
17.500000 97.580 -178.8781
17.750000 97.559 -179.3517
18.000000 97.543 -179.7996
18.250000 97.534 179.7557
18.500000 97.529 179.2874
18.750000 97.525 178.7945
19.000000 97.518 178.2759
19.250000 97.508 177.7508
19.500000 97.494 177.2332
19.750000 97.478 176.7336
20.000000 97.461 176.2581
20.299999 97.443 175.7072
20.600000 97.426 175.1645
20.900000 97.412 174.6159
21.200001 97.396 174.0577
21.400000 97.384 173.6859
21.799999 97.358 172.9573
22.000000 97.344 172.6057
22.400000 97.317 171.9289
22.700001 97.299 171.4343
23.000000 97.282 170.9398
23.299999 97.265 170.4431
23.600000 97.246 169.9489
24.000000 97.220 169.3031
24.299999 97.200 168.8317
24.700001 97.174 168.2133
25.000000 97.155 167.7499
25.400000 97.126 167.1326
25.799999 97.093 166.5353
26.200001 97.058 165.9819
26.500000 97.034 165.5959
26.900000 97.007 165.0970
27.200001 96.991 164.7089
27.600000 96.971 164.1490
28.000000 96.946 163.5480
28.500000 96.900 162.8047
29.000000 96.848 162.1467
29.500000 96.800 161.5705
30.000000 96.764 160.9961
30.400000 96.737 160.4971
30.700001 96.713 160.1049
31.100000 96.675 159.5957
31.500000 96.631 159.1422
32.000000 96.583 158.6688
32.500000 96.551 158.2227
33.000000 96.531 157.6852
33.500000 96.503 157.0309
34.000000 96.454 156.3632
34.500000 96.392 155.7991
35.000000 96.337 155.3308
35.500000 96.293 154.8401
36.000000 96.245 154.2643
36.500000 96.178 153.6932
37.000000 96.099 153.2728
37.500000 96.036 153.0142
38.200001 95.995 152.6283
38.700001 95.979 152.1716
39.500000 95.926 151.2966
40.000000 95.882 150.7996
40.599998 95.834 150.2263
41.200001 95.780 149.6274
41.799999 95.714 149.0887
42.500000 95.641 148.6072
43.099998 95.592 148.1951
43.700001 95.540 147.7090
44.400002 95.464 147.1690
45.000000 95.400 146.7828
45.500000 95.353 146.4423
46.200001 95.285 145.8900
46.799999 95.219 145.4221
47.500000 95.146 144.8875
48.200001 95.068 144.2733
48.700001 94.995 143.8708
49.400002 94.891 143.5695
50.000000 94.838 143.4681
50.799999 94.815 143.1071
51.500000 94.780 142.5442
52.200001 94.718 142.0444
53.000000 94.652 141.6068
53.799999 94.594 141.1464
54.500000 94.541 140.7308
55.200001 94.490 140.3067
56.000000 94.428 139.7789
57.000000 94.337 139.1815
58.000000 94.251 138.7394
59.000000 94.180 138.3673
60.000000 94.113 137.9931
60.799999 94.053 137.6697
61.500000 93.991 137.3817
62.200001 93.918 137.1023
63.000000 93.828 136.7952
64.000000 93.708 136.3726
65.000000 93.571 136.0073
66.000000 93.466 135.8843
67.000000 93.434 135.5899
68.000000 93.405 134.9383
69.000000 93.353 134.2629
70.000000 93.282 133.6391
71.000000 93.181 133.2364
72.000000 93.092 133.0973
73.000000 93.026 132.9250
74.000000 92.958 132.6276
75.000000 92.883 132.2753
76.199997 92.788 131.8367
77.500000 92.691 131.3690
78.800003 92.590 130.9183
80.000000 92.496 130.5903
81.199997 92.410 130.2824
82.500000 92.317 129.9479
83.800003 92.233 129.6399
85.000000 92.161 129.3195
86.199997 92.081 129.0094
87.500000 91.992 128.7031
88.500000 91.925 128.4282
90.000000 91.820 127.9108
91.199997 91.741 127.5484
92.500000 91.686 127.2460
93.800003 91.645 127.0852
95.000000 91.601 127.1197
96.199997 91.510 127.3394
97.500000 91.345 128.0790
98.800003 91.222 129.4065
100.000000 91.272 129.9292
101.500000 91.259 128.1502
103.000000 91.034 126.3360
104.400002 90.885 125.3272
106.000000 90.795 124.6582
107.500000 90.738 124.4766
109.000000 90.656 124.5606
110.599998 90.538 124.7471
112.000000 90.424 124.8208
113.800003 90.313 124.7358
115.000000 90.264 124.5294
117.199997 90.185 124.3049
118.000000 90.159 124.3604
120.599998 90.087 124.6138
122.000000 90.031 124.5570
124.099998 89.961 124.2612
125.000000 89.950 124.0796
126.500000 89.951 123.8210
128.000000 89.949 123.8302
131.500000 89.948 125.7042
132.000000 89.973 125.8707
134.000000 89.986 124.8737
136.000000 89.730 122.9808
138.000000 89.469 121.7787
140.000000 89.323 121.2891
143.000000 89.263 121.6631
145.000000 89.247 121.9464
147.500000 89.175 122.3480
150.000000 89.145 122.6252
152.500000 89.166 122.2197
155.000000 89.175 121.5436
157.500000 89.166 121.0074
160.000000 89.132 120.4342
162.500000 89.085 119.8061
165.000000 89.051 119.1573
167.500000 88.975 118.5432
170.000000 88.861 118.1442
172.500000 88.756 117.7759
175.000000 88.671 117.3957
177.500000 88.591 117.0532
180.000000 88.509 116.7454
182.500000 88.434 116.4485
185.000000 88.365 116.2069
187.500000 88.293 116.0118
190.000000 88.220 115.7755
192.500000 88.160 115.5259
195.000000 88.121 115.4844
197.500000 88.098 115.6384
200.000000 88.051 115.5019
203.000000 87.923 114.9734
206.000000 87.820 114.5461
209.000000 87.759 114.3111
212.000000 87.701 114.1102
214.000000 87.659 113.9360
218.000000 87.582 113.6288
220.000000 87.544 113.5022
224.000000 87.472 113.2426
227.000000 87.420 113.0655
230.000000 87.365 112.9330
233.000000 87.316 112.7821
236.000000 87.277 112.5768
240.000000 87.224 112.3207
243.000000 87.179 112.1232
247.000000 87.127 111.8105
250.000000 87.096 111.5887
254.000000 87.044 111.3988
258.000000 86.989 111.2112
262.000000 86.943 110.8840
265.000000 86.910 110.6260
269.000000 86.864 110.4345
272.000000 86.833 110.3243
276.000000 86.792 110.1243
280.000000 86.751 109.9123
285.000000 86.705 109.6579
290.000000 86.666 109.3968
295.000000 86.624 109.1395
300.000000 86.582 108.8716
304.000000 86.551 108.6474
307.000000 86.529 108.4968
311.000000 86.504 108.3100
315.000000 86.480 108.1243
320.000000 86.450 107.8900
325.000000 86.426 107.6483
330.000000 86.405 107.4254
335.000000 86.386 107.2005
340.000000 86.370 106.9883
345.000000 86.366 106.7861
350.000000 86.367 106.5603
355.000000 86.356 106.3251
360.000000 86.344 106.0831
365.000000 86.340 105.8375
370.000000 86.340 105.5823
375.000000 86.340 105.3125
382.000000 86.338 104.9034
387.000000 86.339 104.6148
395.000000 86.340 104.1976
400.000000 86.337 103.9360
406.000000 86.337 103.6289
412.000000 86.343 103.3267
418.000000 86.351 103.0255
425.000000 86.360 102.6628
431.000000 86.371 102.3730
437.000000 86.382 102.1003
444.000000 86.388 101.7667
450.000000 86.394 101.4909
455.000000 86.414 101.2558
462.000000 86.447 100.9333
468.000000 86.470 100.6671
475.000000 86.497 100.3420
482.000000 86.524 99.9945
487.000000 86.545 99.7444
494.000000 86.575 99.3769
500.000000 86.602 99.0641
508.000000 86.641 98.6650
515.000000 86.679 98.3062
522.000000 86.715 97.9443
530.000000 86.756 97.5414
538.000000 86.798 97.1193
545.000000 86.836 96.7453
552.000000 86.872 96.3643
560.000000 86.913 95.8918
570.000000 86.965 95.2978
580.000000 87.022 94.7216
590.000000 87.076 94.1501
600.000000 87.130 93.5648
608.000000 87.172 93.0978
615.000000 87.208 92.6980
622.000000 87.244 92.3001
630.000000 87.285 91.8328
640.000000 87.338 91.2565
650.000000 87.393 90.6922
660.000000 87.441 90.0552
670.000000 87.490 89.3555
680.000000 87.528 88.5821
690.000000 87.535 87.8333
700.000000 87.523 87.3387
710.000000 87.532 87.0670
720.000000 87.569 86.7866
730.000000 87.617 86.4278
740.000000 87.665 86.0033
750.000000 87.712 85.5482
762.000000 87.769 85.0437
775.000000 87.825 84.5103
788.000000 87.878 83.9749
800.000000 87.926 83.4867
812.000000 87.977 83.0201
825.000000 88.036 82.5191
838.000000 88.097 82.0080
850.000000 88.151 81.5502
862.000000 88.203 81.1169
875.000000 88.261 80.6456
885.000000 88.307 80.2822
900.000000 88.379 79.7424
912.000000 88.438 79.3054
925.000000 88.502 78.8323
938.000000 88.566 78.3738
950.000000 88.625 77.9559
962.000000 88.684 77.5215
975.000000 88.752 77.0593
988.000000 88.824 76.6183
1000.000000 88.897 76.2023
1015.000000 88.997 75.6207
1030.000000 89.097 74.9282
1044.000000 89.179 74.1813
1060.000000 89.261 73.3029
1075.000000 89.328 72.4966
1090.000000 89.386 71.7055
1106.000000 89.441 70.8748
1120.000000 89.486 70.1588
1138.000000 89.541 69.2444
1150.000000 89.574 68.6385
1172.000000 89.623 67.5541
1180.000000 89.639 67.1670
1206.000000 89.685 65.9301
1220.000000 89.705 65.2728
1241.000000 89.728 64.3175
1250.000000 89.735 63.9219
1265.000000 89.747 63.2753
1280.000000 89.756 62.6481
1315.000000 89.768 61.2642
1320.000000 89.769 61.0758
1340.000000 89.768 60.3499
1360.000000 89.765 59.6602
1380.000000 89.758 59.0004
1400.000000 89.748 58.3745
1430.000000 89.734 57.4991
1450.000000 89.724 56.9619
1475.000000 89.711 56.3348
1500.000000 89.697 55.7524
1525.000000 89.683 55.2096
1550.000000 89.669 54.7083
1575.000000 89.659 54.2408
1600.000000 89.648 53.8236
1625.000000 89.640 53.4378
1650.000000 89.635 53.0634
1675.000000 89.632 52.7131
1700.000000 89.631 52.3975
1725.000000 89.634 52.0980
1750.000000 89.640 51.8050
1775.000000 89.647 51.5063
1800.000000 89.655 51.2126
1825.000000 89.666 50.9217
1850.000000 89.680 50.6302
1875.000000 89.696 50.3539
1900.000000 89.714 50.0800
1925.000000 89.733 49.7942
1950.000000 89.755 49.4962
1975.000000 89.779 49.1855
2000.000000 89.804 48.8625
2030.000000 89.835 48.4628
2060.000000 89.868 48.0483
2090.000000 89.903 47.6145
2120.000000 89.939 47.1495
2140.000000 89.962 46.8235
2180.000000 90.007 46.1318
2200.000000 90.029 45.7620
2240.000000 90.071 44.9830
2270.000000 90.101 44.3621
2300.000000 90.129 43.7065
2330.000000 90.151 43.0166
2360.000000 90.169 42.2954
2400.000000 90.184 41.2983
2430.000000 90.188 40.5154
2470.000000 90.187 39.4427
2500.000000 90.179 38.6334
2540.000000 90.158 37.5548
2580.000000 90.124 36.4754
2620.000000 90.081 35.4079
2650.000000 90.043 34.6247
2690.000000 89.986 33.6151
2720.000000 89.942 32.8902
2760.000000 89.883 31.9566
2800.000000 89.825 31.0576
2850.000000 89.763 29.9745
2900.000000 89.716 28.8861
2950.000000 89.685 27.7114
3000.000000 89.666 26.3869
3040.000000 89.653 25.2020
3070.000000 89.643 24.2294
3110.000000 89.622 22.8193
3150.000000 89.593 21.3040
3200.000000 89.541 19.2958
3250.000000 89.470 17.1829
3300.000000 89.383 14.9827
3350.000000 89.280 12.7223
3400.000000 89.165 10.4062
3450.000000 89.040 8.0272
3500.000000 88.906 5.5786
3550.000000 88.767 3.0667
3600.000000 88.625 0.4872
3650.000000 88.478 -2.1781
3700.000000 88.330 -4.9428
3750.000000 88.181 -7.8035
3820.000000 87.973 -11.9697
3870.000000 87.828 -15.0797
3950.000000 87.603 -20.2897
4000.000000 87.470 -23.6890
4060.000000 87.322 -27.9241
4120.000000 87.190 -32.3383
4180.000000 87.068 -36.9097
4250.000000 86.928 -42.1982
4310.000000 86.877 -46.5018
4370.000000 86.928 -51.0892
4440.000000 87.036 -56.9988
4500.000000 87.153 -62.3653
4550.000000 87.263 -67.0315
4620.000000 87.412 -73.8839
4680.000000 87.502 -79.9480
4750.000000 87.529 -86.9167
4820.000000 87.470 -93.2987
4870.000000 87.396 -97.2783
4940.000000 87.296 -101.9186
5000.000000 87.253 -105.0918
5080.000000 87.294 -108.4384
5150.000000 87.429 -110.8176
5220.000000 87.651 -112.8960
5300.000000 87.989 -115.1003
5380.000000 88.394 -117.2659
5450.000000 88.788 -119.2041
5520.000000 89.205 -121.2194
5600.000000 89.695 -123.6395
5700.000000 90.306 -126.8555
5800.000000 90.891 -130.2772
5900.000000 91.436 -133.8476
6000.000000 91.930 -137.4888
6080.000000 92.288 -140.3964
6150.000000 92.576 -142.9014
6220.000000 92.847 -145.3473
6300.000000 93.138 -148.0568
6400.000000 93.488 -151.3252
6500.000000 93.833 -154.5138
6600.000000 94.185 -157.7245
6700.000000 94.545 -161.0990
6800.000000 94.905 -164.7937
6900.000000 95.246 -168.9645
7000.000000 95.538 -173.7325
7100.000000 95.743 -179.1473
7200.000000 95.815 174.8557
7300.000000 95.709 168.5272
7400.000000 95.403 162.2941
7500.000000 94.906 156.6026
7620.000000 94.104 150.9637
7750.000000 93.071 146.6614
7880.000000 91.967 144.2413
8000.000000 90.962 143.4631
8120.000000 90.011 143.8015
8250.000000 89.063 145.1420
8380.000000 88.208 147.2759
8500.000000 87.505 149.7706
8620.000000 86.883 152.6346
8750.000000 86.298 156.0509
8850.000000 85.908 158.8511
9000.000000 85.416 163.2183
9120.000000 85.105 166.7798
9250.000000 84.844 170.6398
9380.000000 84.664 174.4376
9500.000000 84.565 177.7836
9620.000000 84.526 -179.1414
9750.000000 84.534 -176.2004
9880.000000 84.565 -173.7243
10000.000000 84.586 -171.8407
10150.000000 84.565 -169.8735
10300.000000 84.481 -167.9797
10440.000000 84.362 -165.9685
10600.000000 84.227 -163.1792
10750.000000 84.161 -160.1594
10900.000000 84.191 -157.0194
11060.000000 84.337 -153.8751
11200.000000 84.554 -151.5186
11380.000000 84.921 -149.2802
11500.000000 85.197 -148.3955
11720.000000 85.697 -148.1577
11800.000000 85.855 -148.5066
12060.000000 86.201 -150.9130
12200.000000 86.254 -152.6608
12410.000000 86.164 -155.2249
12500.000000 86.075 -156.1665
12650.000000 85.885 -157.4352
12800.000000 85.670 -158.3301
13150.000000 85.200 -159.0803
13200.000000 85.145 -159.0551
13400.000000 84.984 -158.7289
13600.000000 84.949 -158.1796
13800.000000 85.088 -157.6531
14000.000000 85.446 -157.5329
14300.000000 86.494 -159.6151
14500.000000 87.510 -164.2382
14750.000000 88.775 -176.5237
15000.000000 89.257 163.0060
15250.000000 88.320 140.1576
15500.000000 86.136 123.1379
15750.000000 83.466 113.5789
16000.000000 80.947 108.6940
16250.000000 78.815 105.8804
16500.000000 77.047 103.7230
16750.000000 75.554 101.3881
17000.000000 74.261 98.4104
17250.000000 73.108 94.5901
17500.000000 72.051 89.7383
17750.000000 71.037 83.7259
18000.000000 70.021 76.6589
18250.000000 68.999 68.6814
18500.000000 67.988 59.7201
18750.000000 67.004 49.5087
19000.000000 66.034 37.6808
19250.000000 65.058 23.8506
19500.000000 64.019 7.8763
19750.000000 62.948 -8.2856
