* Measurement data measured by REW V5.20.9
* Source: USB-C to 3.5mm Headphone Jack Adapter, USB-C to 3.5mm Headphone Jack Adapter, 0, volume: 0.138
* Format: 256k Log Swept Sine, 1 sweep at -12.0 dBFS with no timing reference
* Dated: 27/08/2022 3:20:34 PM
* REW Settings:
*  C-weighting compensation: Off
*  Target level: 75.0 dB
* Note: ; 
* Measurement: Monarch MkII L
* Smoothing: 1/24 octave
* Frequency Step: 1/48 octave
* Start Frequency: 1.000 Hz
*
* Freq(Hz) SPL(dB) Phase(degrees)
1.000000 67.519 -147.0089
1.015000 67.732 -147.9730
1.030000 67.942 -148.8731
1.044000 68.135 -149.6597
1.060000 68.352 -150.5007
1.075000 68.552 -151.2381
1.090000 68.749 -151.9310
1.106000 68.956 -152.6265
1.120000 69.135 -153.2029
1.138000 69.361 -153.9062
1.150000 69.510 -154.3555
1.172000 69.780 -155.1476
1.180000 69.877 -155.4280
1.206000 70.189 -156.3229
1.220000 70.354 -156.8009
1.241000 70.600 -157.5238
1.250000 70.704 -157.8385
1.265000 70.877 -158.3737
1.280000 71.049 -158.9263
1.315000 71.446 -160.3109
1.320000 71.502 -160.5222
1.340000 71.727 -161.4086
1.360000 71.951 -162.3591
1.380000 72.171 -163.3479
1.400000 72.389 -164.3686
1.430000 72.711 -165.9488
1.450000 72.922 -167.0279
1.475000 73.182 -168.3970
1.500000 73.438 -169.7796
1.525000 73.690 -171.1663
1.550000 73.939 -172.5474
1.575000 74.183 -173.9135
1.600000 74.424 -175.2549
1.625000 74.662 -176.5621
1.650000 74.896 -177.8256
1.675000 75.127 -179.0358
1.700000 75.354 179.8105
1.725000 75.577 178.6984
1.750000 75.796 177.6222
1.775000 76.012 176.5771
1.800000 76.223 175.5586
1.825000 76.431 174.5617
1.850000 76.635 173.5819
1.875000 76.836 172.6143
1.900000 77.034 171.6542
1.925000 77.229 170.6968
1.950000 77.421 169.7376
1.975000 77.610 168.7716
2.000000 77.796 167.7942
2.030000 78.016 166.6013
2.060000 78.232 165.3999
2.090000 78.442 164.1960
2.120000 78.648 162.9916
2.140000 78.783 162.1894
2.180000 79.047 160.5893
2.200000 79.176 159.7925
2.240000 79.430 158.2087
2.270000 79.615 157.0315
2.300000 79.797 155.8657
2.330000 79.976 154.7132
2.360000 80.151 153.5759
2.400000 80.379 152.0739
2.430000 80.545 150.9555
2.470000 80.760 149.4775
2.500000 80.917 148.3801
2.540000 81.121 146.9339
2.580000 81.319 145.5093
2.620000 81.512 144.1089
2.650000 81.653 143.0760
2.690000 81.838 141.7242
2.720000 81.972 140.7311
2.760000 82.146 139.4349
2.800000 82.315 138.1671
2.850000 82.517 136.6165
2.900000 82.712 135.0966
2.950000 82.900 133.6002
3.000000 83.083 132.1195
3.040000 83.225 130.9413
3.070000 83.328 130.0594
3.110000 83.461 128.8886
3.150000 83.590 127.7277
3.200000 83.746 126.2975
3.250000 83.896 124.8990
3.300000 84.041 123.5412
3.350000 84.183 122.2331
3.400000 84.321 120.9824
3.450000 84.453 119.7861
3.500000 84.581 118.6357
3.550000 84.704 117.5222
3.600000 84.824 116.4371
3.650000 84.941 115.3715
3.700000 85.057 114.3168
3.750000 85.170 113.2733
3.820000 85.323 111.8453
3.870000 85.430 110.8512
3.950000 85.596 109.3100
4.000000 85.698 108.3804
4.060000 85.821 107.3031
4.120000 85.941 106.2765
4.180000 86.060 105.2925
4.250000 86.197 104.1820
4.310000 86.312 103.2483
4.370000 86.428 102.3185
4.440000 86.562 101.2415
4.500000 86.676 100.3356
4.550000 86.770 99.5909
4.620000 86.901 98.5602
4.680000 87.011 97.6848
4.750000 87.139 96.6712
4.820000 87.265 95.6729
4.870000 87.354 94.9671
4.940000 87.477 93.9853
5.000000 87.581 93.1461
5.080000 87.714 92.0254
5.150000 87.828 91.0453
5.220000 87.940 90.0680
5.300000 88.063 88.9568
5.380000 88.181 87.8539
5.450000 88.279 86.8932
5.520000 88.374 85.9349
5.600000 88.477 84.8492
5.700000 88.599 83.5174
5.800000 88.712 82.2180
5.900000 88.816 80.9441
6.000000 88.914 79.7052
6.080000 88.987 78.7455
6.150000 89.047 77.9257
6.220000 89.103 77.1245
6.300000 89.165 76.2348
6.400000 89.238 75.1667
6.500000 89.308 74.1515
6.600000 89.374 73.1838
6.700000 89.438 72.2562
6.800000 89.503 71.3667
6.900000 89.566 70.5205
7.000000 89.629 69.7053
7.100000 89.693 68.9097
7.200000 89.759 68.1434
7.300000 89.825 67.3973
7.400000 89.893 66.6546
7.500000 89.961 65.9143
7.620000 90.045 65.0338
7.750000 90.134 64.0698
7.880000 90.222 63.0899
8.000000 90.302 62.1750
8.120000 90.377 61.2472
8.250000 90.453 60.2239
8.380000 90.524 59.1949
8.500000 90.581 58.2455
8.620000 90.632 57.2931
8.750000 90.679 56.2822
8.850000 90.710 55.5217
9.000000 90.747 54.4095
9.120000 90.770 53.5674
9.250000 90.788 52.7003
9.380000 90.803 51.8869
9.500000 90.815 51.1945
9.620000 90.824 50.5553
9.750000 90.836 49.9159
9.880000 90.851 49.3355
10.000000 90.868 48.8462
10.150000 90.897 48.2667
10.300000 90.935 47.7321
10.440000 90.978 47.2345
10.600000 91.038 46.6569
10.750000 91.101 46.0905
10.900000 91.169 45.4733
11.060000 91.244 44.7665
11.200000 91.308 44.0967
11.380000 91.387 43.1727
11.500000 91.434 42.5347
11.720000 91.508 41.3173
11.800000 91.531 40.8799
12.060000 91.588 39.4747
12.200000 91.611 38.7655
12.410000 91.639 37.7679
12.500000 91.650 37.3697
12.650000 91.669 36.7476
12.800000 91.691 36.1568
13.150000 91.758 34.8671
13.200000 91.770 34.6829
13.400000 91.820 33.9403
13.600000 91.871 33.1541
13.800000 91.920 32.3322
14.000000 91.961 31.4758
14.300000 92.006 30.2045
14.500000 92.024 29.4036
14.750000 92.039 28.4998
15.000000 92.056 27.7124
15.250000 92.082 26.9960
15.500000 92.121 26.2959
15.750000 92.170 25.5321
16.000000 92.215 24.6561
16.250000 92.243 23.6941
16.500000 92.246 22.6995
16.750000 92.217 21.7824
17.000000 92.165 21.0758
17.250000 92.108 20.6293
17.500000 92.065 20.4521
17.750000 92.060 20.4635
18.000000 92.103 20.4702
18.250000 92.185 20.3221
18.500000 92.291 19.8903
18.750000 92.390 19.1038
19.000000 92.454 18.0491
19.250000 92.470 16.8575
19.500000 92.428 15.6889
19.750000 92.338 14.7601
20.000000 92.224 14.1896
20.299999 92.092 14.0094
20.600000 92.011 14.2634
20.900000 92.011 14.6677
21.200001 92.087 14.8904
21.400000 92.163 14.8110
21.799999 92.315 14.0789
22.000000 92.371 13.4929
22.400000 92.424 12.1404
22.700001 92.420 11.2021
23.000000 92.401 10.4250
23.299999 92.387 9.7858
23.600000 92.388 9.1849
24.000000 92.407 8.2544
24.299999 92.413 7.4147
24.700001 92.386 6.2072
25.000000 92.338 5.3757
25.400000 92.252 4.5115
25.799999 92.174 3.9236
26.200001 92.120 3.4681
26.500000 92.092 3.1366
26.900000 92.059 2.7111
27.200001 92.038 2.4440
27.600000 92.027 2.1665
28.000000 92.045 1.8649
28.500000 92.089 1.2013
29.000000 92.091 0.2885
29.500000 92.036 -0.3517
30.000000 92.017 -0.4340
30.400000 92.091 -0.4655
30.700001 92.186 -0.8124
31.100000 92.300 -1.9192
31.500000 92.317 -3.5268
32.000000 92.163 -5.2367
32.500000 91.924 -5.6453
33.000000 91.807 -4.9924
33.500000 91.881 -4.5350
34.000000 91.998 -5.1171
34.500000 92.002 -6.3240
35.000000 91.888 -7.1471
35.500000 91.772 -7.1528
36.000000 91.760 -6.8211
36.500000 91.843 -6.9071
37.000000 91.929 -7.7297
37.500000 91.935 -9.0500
38.200001 91.775 -10.7589
38.700001 91.596 -11.3352
39.500000 91.391 -11.1518
40.000000 91.375 -10.9480
40.599998 91.420 -11.2357
41.200001 91.444 -12.0847
41.799999 91.410 -13.0659
42.500000 91.337 -13.9790
43.099998 91.281 -14.6272
43.700001 91.226 -15.2660
44.400002 91.149 -15.8726
45.000000 91.097 -16.2117
45.500000 91.077 -16.5167
46.200001 91.046 -17.1754
46.799999 90.977 -17.7742
47.500000 90.871 -18.1084
48.200001 90.810 -18.1486
48.700001 90.802 -18.2731
49.400002 90.791 -18.7541
50.000000 90.749 -19.2751
50.799999 90.661 -19.6684
51.500000 90.632 -19.6882
52.200001 90.679 -19.9646
53.000000 90.710 -21.0464
53.799999 90.612 -22.1744
54.500000 90.489 -22.5643
55.200001 90.409 -22.6508
56.000000 90.350 -22.7913
57.000000 90.288 -22.9622
58.000000 90.247 -23.2996
59.000000 90.165 -23.7777
60.000000 90.074 -23.9465
60.799999 90.047 -24.1321
61.500000 90.024 -24.5652
62.200001 89.972 -25.0710
63.000000 89.906 -25.5459
64.000000 89.837 -26.3136
65.000000 89.708 -27.1752
66.000000 89.553 -27.5647
67.000000 89.438 -27.7152
68.000000 89.349 -27.8587
69.000000 89.266 -28.0856
70.000000 89.169 -28.3256
71.000000 89.073 -28.4926
72.000000 88.991 -28.7172
73.000000 88.918 -29.0427
74.000000 88.850 -29.4603
75.000000 88.779 -29.8890
76.199997 88.701 -30.2374
77.500000 88.636 -30.4957
78.800003 88.564 -30.6876
80.000000 88.481 -30.8907
81.199997 88.357 -31.1760
82.500000 88.195 -31.3800
83.800003 88.059 -31.6492
85.000000 87.953 -32.0311
86.199997 87.867 -32.4326
87.500000 87.786 -32.7729
88.500000 87.735 -32.9221
90.000000 87.655 -33.0669
91.199997 87.572 -33.1318
92.500000 87.461 -33.1732
93.800003 87.345 -33.1560
95.000000 87.256 -33.3014
96.199997 87.136 -33.6375
97.500000 86.986 -33.6365
98.800003 86.923 -33.4583
100.000000 86.902 -33.8453
101.500000 86.751 -34.3428
103.000000 86.630 -34.0110
104.400002 86.562 -33.9509
106.000000 86.445 -33.7512
107.500000 86.384 -33.4930
109.000000 86.330 -33.8222
110.599998 86.175 -34.3058
112.000000 86.018 -34.1636
113.800003 85.896 -33.7242
115.000000 85.825 -33.4852
117.199997 85.702 -32.9763
118.000000 85.666 -32.8280
120.599998 85.564 -32.6683
122.000000 85.500 -32.6340
124.099998 85.403 -32.4827
125.000000 85.360 -32.4420
126.500000 85.274 -32.4616
128.000000 85.164 -32.4579
131.500000 84.957 -32.1454
132.000000 84.933 -32.1079
134.000000 84.828 -31.9089
136.000000 84.713 -31.6661
138.000000 84.585 -31.5128
140.000000 84.455 -31.3914
143.000000 84.303 -30.9987
145.000000 84.243 -30.5942
147.500000 84.167 -30.0869
150.000000 84.060 -29.6577
152.500000 83.951 -29.2426
155.000000 83.875 -28.8129
157.500000 83.794 -28.3033
160.000000 83.689 -27.8257
162.500000 83.588 -27.5615
165.000000 83.527 -27.4633
167.500000 83.444 -27.1887
170.000000 83.326 -26.3199
172.500000 83.250 -25.5775
175.000000 83.178 -25.2811
177.500000 83.104 -24.9360
180.000000 83.030 -24.4497
182.500000 82.974 -23.9055
185.000000 82.943 -23.3915
187.500000 82.901 -22.9042
190.000000 82.837 -22.3858
192.500000 82.794 -21.7391
195.000000 82.756 -20.8509
197.500000 82.642 -20.0070
200.000000 82.450 -19.7668
203.000000 82.330 -20.2034
206.000000 82.416 -20.3089
209.000000 82.452 -19.2034
212.000000 82.403 -17.9614
214.000000 82.372 -17.6443
218.000000 82.356 -17.4407
220.000000 82.343 -17.1755
224.000000 82.315 -16.6041
227.000000 82.272 -16.3577
230.000000 82.219 -15.9451
233.000000 82.190 -15.3917
236.000000 82.174 -14.7722
240.000000 82.127 -14.0250
243.000000 82.092 -13.4156
247.000000 82.073 -12.5887
250.000000 82.058 -12.1349
254.000000 82.018 -11.7725
258.000000 81.986 -11.3188
262.000000 81.949 -10.9620
265.000000 81.917 -10.6478
269.000000 81.913 -9.8633
272.000000 81.920 -9.2109
276.000000 81.892 -8.6712
280.000000 81.873 -8.1063
285.000000 81.935 -7.4106
290.000000 82.020 -6.8494
295.000000 82.023 -6.4300
300.000000 81.992 -5.3920
304.000000 81.978 -4.7943
307.000000 81.974 -4.6154
311.000000 81.983 -4.4366
315.000000 81.968 -4.2127
320.000000 81.922 -3.7183
325.000000 81.939 -3.0334
330.000000 81.975 -2.7263
335.000000 81.990 -2.5791
340.000000 81.981 -2.1659
345.000000 81.978 -1.8253
350.000000 81.953 -2.0509
355.000000 81.921 -2.2235
360.000000 81.961 -1.9376
365.000000 82.042 -0.9957
370.000000 82.038 0.1342
375.000000 81.956 0.6376
382.000000 81.917 0.8447
387.000000 81.953 0.9158
395.000000 82.030 1.6418
400.000000 81.998 2.4047
406.000000 81.923 2.6804
412.000000 81.900 2.8868
418.000000 81.888 3.2796
425.000000 81.889 3.6824
431.000000 81.879 4.0587
437.000000 81.874 4.3898
444.000000 81.879 4.7850
450.000000 81.881 5.2195
455.000000 81.881 5.6407
462.000000 81.873 6.2316
468.000000 81.868 6.6190
475.000000 81.837 6.9121
482.000000 81.840 7.3652
487.000000 81.864 7.7200
494.000000 81.891 8.1699
500.000000 81.924 8.3376
508.000000 81.899 8.7232
515.000000 81.887 9.5024
522.000000 81.884 9.7614
530.000000 81.895 10.4061
538.000000 81.984 10.4156
545.000000 81.916 10.2406
552.000000 81.822 10.8635
560.000000 81.787 11.8652
570.000000 81.854 12.5295
580.000000 81.880 12.8090
590.000000 81.858 13.2108
600.000000 81.845 13.8751
608.000000 81.831 14.4657
615.000000 81.824 14.8895
622.000000 81.832 15.2576
630.000000 81.838 15.7328
640.000000 81.826 16.3658
650.000000 81.819 17.0132
660.000000 81.819 17.7137
670.000000 81.821 18.3285
680.000000 81.825 18.9540
690.000000 81.836 19.6732
700.000000 81.842 20.3966
710.000000 81.844 21.0730
720.000000 81.847 21.7238
730.000000 81.860 22.4309
740.000000 81.884 23.2415
750.000000 81.907 24.0204
762.000000 81.937 24.9473
775.000000 81.985 25.9788
788.000000 82.024 27.0192
800.000000 82.068 27.9598
812.000000 82.148 28.9036
825.000000 82.247 29.7985
838.000000 82.363 30.7530
850.000000 82.477 31.5965
862.000000 82.598 32.2179
875.000000 82.731 32.6554
885.000000 82.821 32.8329
900.000000 82.944 33.0229
912.000000 83.023 33.2745
925.000000 83.081 33.5338
938.000000 83.125 33.7502
950.000000 83.160 33.9753
962.000000 83.201 34.3300
975.000000 83.250 34.8197
988.000000 83.305 35.3536
1000.000000 83.359 35.8381
1015.000000 83.427 36.3673
1030.000000 83.497 36.8679
1044.000000 83.565 37.3409
1060.000000 83.646 37.8575
1075.000000 83.726 38.2865
1090.000000 83.806 38.6967
1106.000000 83.888 39.1324
1120.000000 83.959 39.4948
1138.000000 84.050 39.9020
1150.000000 84.108 40.1476
1172.000000 84.210 40.5848
1180.000000 84.247 40.7429
1206.000000 84.361 41.2446
1220.000000 84.419 41.5138
1241.000000 84.505 41.9040
1250.000000 84.540 42.0648
1265.000000 84.596 42.3314
1280.000000 84.650 42.5997
1315.000000 84.772 43.2403
1320.000000 84.788 43.3320
1340.000000 84.853 43.7026
1360.000000 84.919 44.0739
1380.000000 84.986 44.4548
1400.000000 85.049 44.8523
1430.000000 85.144 45.4454
1450.000000 85.209 45.8510
1475.000000 85.289 46.3795
1500.000000 85.370 46.9203
1525.000000 85.452 47.4558
1550.000000 85.537 48.0013
1575.000000 85.624 48.5483
1600.000000 85.714 49.0917
1625.000000 85.808 49.6390
1650.000000 85.905 50.1784
1675.000000 86.006 50.7162
1700.000000 86.108 51.2431
1725.000000 86.214 51.7559
1750.000000 86.324 52.2534
1775.000000 86.436 52.7349
1800.000000 86.551 53.1968
1825.000000 86.670 53.6360
1850.000000 86.793 54.0558
1875.000000 86.920 54.4512
1900.000000 87.049 54.8196
1925.000000 87.182 55.1567
1950.000000 87.317 55.4587
1975.000000 87.455 55.7227
2000.000000 87.594 55.9510
2030.000000 87.764 56.1791
2060.000000 87.936 56.3520
2090.000000 88.111 56.4585
2120.000000 88.287 56.4974
2140.000000 88.405 56.4850
2180.000000 88.639 56.3644
2200.000000 88.755 56.2526
2240.000000 88.983 55.9297
2270.000000 89.151 55.5995
2300.000000 89.315 55.1895
2330.000000 89.473 54.7063
2360.000000 89.622 54.1545
2400.000000 89.807 53.3203
2430.000000 89.934 52.6260
2470.000000 90.087 51.6234
2500.000000 90.188 50.8279
2540.000000 90.303 49.7266
2580.000000 90.395 48.5948
2620.000000 90.466 47.4590
2650.000000 90.507 46.6209
2690.000000 90.544 45.5344
2720.000000 90.561 44.7468
2760.000000 90.573 43.7428
2800.000000 90.575 42.7913
2850.000000 90.566 41.6752
2900.000000 90.546 40.6299
2950.000000 90.516 39.6525
3000.000000 90.479 38.7387
3040.000000 90.445 38.0493
3070.000000 90.417 37.5574
3110.000000 90.376 36.9388
3150.000000 90.334 36.3639
3200.000000 90.280 35.7142
3250.000000 90.229 35.1393
3300.000000 90.187 34.6202
3350.000000 90.158 34.1109
3400.000000 90.141 33.5557
3450.000000 90.130 32.9082
3500.000000 90.116 32.1615
3550.000000 90.098 31.3360
3600.000000 90.075 30.4362
3650.000000 90.044 29.4420
3700.000000 90.005 28.3243
3750.000000 89.948 27.0496
3820.000000 89.813 24.9805
3870.000000 89.658 23.3608
3950.000000 89.269 20.7855
4000.000000 88.922 19.4268
4060.000000 88.398 18.4247
4120.000000 87.785 18.5259
4180.000000 87.153 20.0599
4250.000000 86.531 23.6397
4310.000000 86.206 27.7548
4370.000000 86.117 32.1448
4440.000000 86.273 36.8591
4500.000000 86.567 40.2073
4550.000000 86.886 42.4245
4620.000000 87.401 44.6361
4680.000000 87.878 45.7237
4750.000000 88.441 46.0937
4820.000000 88.985 45.5590
4870.000000 89.347 44.6710
4940.000000 89.801 42.7924
5000.000000 90.128 40.6703
5080.000000 90.453 37.2648
5150.000000 90.621 33.9202
5220.000000 90.673 30.4274
5300.000000 90.597 26.4883
5380.000000 90.387 22.8376
5450.000000 90.112 20.0377
5520.000000 89.770 17.7038
5600.000000 89.322 15.6681
5700.000000 88.719 14.0709
5800.000000 88.111 13.4398
5900.000000 87.529 13.6367
6000.000000 86.994 14.4985
6080.000000 86.611 15.5634
6150.000000 86.310 16.7123
6220.000000 86.043 18.0152
6300.000000 85.780 19.6421
6400.000000 85.512 21.8111
6500.000000 85.314 24.0586
6600.000000 85.183 26.3134
6700.000000 85.118 28.5005
6800.000000 85.117 30.5752
6900.000000 85.181 32.4955
7000.000000 85.314 34.2055
7100.000000 85.525 35.6143
7200.000000 85.816 36.5894
7300.000000 86.184 36.9729
7400.000000 86.620 36.5976
7500.000000 87.112 35.2815
7620.000000 87.737 32.1272
7750.000000 88.347 26.3215
7880.000000 88.704 18.1115
8000.000000 88.684 9.2823
8120.000000 88.296 0.5187
8250.000000 87.538 -7.6508
8380.000000 86.575 -13.7825
8500.000000 85.641 -17.6338
8620.000000 84.755 -20.0448
8750.000000 83.906 -21.4107
8850.000000 83.351 -21.8007
9000.000000 82.691 -21.6310
9120.000000 82.312 -21.0463
9250.000000 82.044 -20.1320
9380.000000 81.922 -19.0400
9500.000000 81.938 -18.0466
9620.000000 82.058 -17.2689
9750.000000 82.278 -16.7786
9880.000000 82.566 -16.7466
10000.000000 82.867 -17.1989
10150.000000 83.246 -18.4523
10300.000000 83.584 -20.4186
10440.000000 83.826 -22.7618
10600.000000 83.990 -25.8076
10750.000000 84.027 -28.8234
10900.000000 83.943 -31.8118
11060.000000 83.715 -34.6509
11200.000000 83.420 -36.5092
11380.000000 83.001 -37.7983
11500.000000 82.756 -38.0750
11720.000000 82.488 -38.1194
11800.000000 82.461 -38.2520
12060.000000 82.567 -40.4189
12200.000000 82.654 -43.1545
12410.000000 82.638 -49.3397
12500.000000 82.540 -52.5325
12650.000000 82.241 -58.1092
12800.000000 81.805 -63.5467
13150.000000 80.669 -74.5875
13200.000000 80.539 -76.0485
13400.000000 80.201 -82.1361
13600.000000 80.214 -89.4331
13800.000000 80.553 -99.1372
14000.000000 81.055 -112.3456
14300.000000 81.440 -138.9214
14500.000000 81.070 -158.4661
14750.000000 79.897 -179.9023
15000.000000 78.361 164.4208
15250.000000 76.921 153.6725
15500.000000 75.807 146.0996
15750.000000 75.075 140.3866
16000.000000 74.788 135.5961
16250.000000 75.065 130.3885
16500.000000 75.892 122.2688
16750.000000 76.882 108.8407
17000.000000 77.600 90.2362
17250.000000 77.932 68.2433
17500.000000 77.978 43.8976
17750.000000 77.874 16.9068
18000.000000 77.690 -14.2454
18250.000000 77.315 -51.9288
18500.000000 76.385 -97.9276
18750.000000 74.425 -150.7129
19000.000000 71.104 156.1514
19250.000000 66.324 115.8618
19500.000000 60.386 102.7485
19750.000000 56.420 97.1205
