* Measurement data measured by REW V5.20.9
* Source: Headset (USB-C to 3.5mm Headphone Jack Adapter), MICROPHONE (Master Volume), L, volume: 0.800. Timing signal peak level -53.2 dBFS, measurement signal peak level -18.7 dBFS
* Format: 256k Log Swept Sine, 1 sweep at -12.0 dBFS using an acoustic timing reference
* Dated: 23/10/2022 8:53:12 PM
* REW Settings:
*  C-weighting compensation: Off
*  Target level: 75.0 dB
* Note: ; Delay -1.1827 ms (-406 mm, -(1 ft 3.97 in)) using estimated IR delay relative to Acoustic reference on SPEAKER R with no timing offset
* Measurement: Monk Plus L
* Smoothing: 1/24 octave
* Frequency Step: 1/48 octave
* Start Frequency: 1.000 Hz
*
* Freq(Hz) SPL(dB) Phase(degrees)
1.000000 39.164 -86.7444
1.015000 39.421 -83.6209
1.030000 39.677 -80.6483
1.044000 39.912 -78.0268
1.060000 40.177 -75.2320
1.075000 40.418 -72.8264
1.090000 40.652 -70.6481
1.106000 40.893 -68.5840
1.120000 41.112 -66.9365
1.138000 41.408 -65.0076
1.150000 41.613 -63.8346
1.172000 42.003 -61.9056
1.180000 42.149 -61.2717
1.206000 42.634 -59.4435
1.220000 42.900 -58.5969
1.241000 43.305 -57.4925
1.250000 43.479 -57.0759
1.265000 43.770 -56.4517
1.280000 44.060 -55.9090
1.315000 44.727 -54.9213
1.320000 44.821 -54.8083
1.340000 45.189 -54.4160
1.360000 45.545 -54.1072
1.380000 45.885 -53.8655
1.400000 46.208 -53.6744
1.430000 46.651 -53.4469
1.450000 46.916 -53.3106
1.475000 47.208 -53.1606
1.500000 47.466 -53.2808
1.525000 47.695 -53.6925
1.550000 47.897 -54.3486
1.575000 48.076 -55.2015
1.600000 48.234 -56.2039
1.625000 48.373 -57.3085
1.650000 48.497 -58.4677
1.675000 48.608 -59.6343
1.700000 48.708 -60.7608
1.725000 48.802 -61.7999
1.750000 48.891 -62.7041
1.775000 48.978 -63.4261
1.800000 49.065 -63.9186
1.825000 49.156 -64.1341
1.850000 49.247 -64.0702
1.875000 49.325 -63.8210
1.900000 49.390 -63.4090
1.925000 49.445 -62.8529
1.950000 49.492 -62.1713
1.975000 49.532 -61.3830
2.000000 49.567 -60.5064
2.030000 49.606 -59.3646
2.060000 49.643 -58.1548
2.090000 49.682 -56.9095
2.120000 49.727 -55.6609
2.140000 49.762 -54.8424
2.180000 49.846 -53.2823
2.200000 49.897 -52.5591
2.240000 50.004 -51.1056
2.270000 50.083 -49.9728
2.300000 50.164 -48.8102
2.330000 50.247 -47.6244
2.360000 50.335 -46.4216
2.400000 50.461 -44.8021
2.430000 50.565 -43.5841
2.470000 50.717 -41.9673
2.500000 50.845 -40.7684
2.540000 51.034 -39.2001
2.580000 51.250 -37.6685
2.620000 51.496 -36.0927
2.650000 51.699 -34.8841
2.690000 51.987 -33.2614
2.720000 52.215 -32.0523
2.760000 52.530 -30.4752
2.800000 52.851 -28.9658
2.850000 53.255 -27.2203
2.900000 53.650 -25.6869
2.950000 54.030 -24.4158
3.000000 54.416 -23.3602
3.040000 54.730 -22.6477
3.070000 54.967 -22.1837
3.110000 55.281 -21.6513
3.150000 55.592 -21.2082
3.200000 55.971 -20.7650
3.250000 56.334 -20.4269
3.300000 56.674 -20.1753
3.350000 56.996 -20.0811
3.400000 57.304 -20.1696
3.450000 57.598 -20.3911
3.500000 57.880 -20.6959
3.550000 58.149 -21.0342
3.600000 58.406 -21.3565
3.650000 58.652 -21.6130
3.700000 58.885 -21.7898
3.750000 59.103 -21.9501
3.820000 59.385 -22.1602
3.870000 59.573 -22.3058
3.950000 59.859 -22.5427
4.000000 60.031 -22.6998
4.060000 60.233 -22.9072
4.120000 60.421 -23.1461
4.180000 60.599 -23.4005
4.250000 60.796 -23.6917
4.310000 60.963 -23.9144
4.370000 61.130 -24.0925
4.440000 61.329 -24.2141
4.500000 61.496 -24.2381
4.550000 61.635 -24.2247
4.620000 61.828 -24.1931
4.680000 61.995 -24.1895
4.750000 62.192 -24.2584
4.820000 62.394 -24.4137
4.870000 62.541 -24.5488
4.940000 62.749 -24.7764
5.000000 62.927 -25.0127
5.080000 63.161 -25.3961
5.150000 63.361 -25.8031
5.220000 63.560 -26.2712
5.300000 63.787 -26.8785
5.380000 64.007 -27.5647
5.450000 64.190 -28.2313
5.520000 64.362 -28.9633
5.600000 64.549 -29.9015
5.700000 64.767 -31.1924
5.800000 64.965 -32.5552
5.900000 65.138 -33.9397
6.000000 65.286 -35.4001
6.080000 65.390 -36.5971
6.150000 65.470 -37.6353
6.220000 65.542 -38.6399
6.300000 65.612 -39.7540
6.400000 65.680 -41.1266
6.500000 65.734 -42.4448
6.600000 65.783 -43.6743
6.700000 65.823 -44.8107
6.800000 65.854 -45.8683
6.900000 65.886 -46.8498
7.000000 65.926 -47.7530
7.100000 65.970 -48.5553
7.200000 66.019 -49.2916
7.300000 66.077 -50.0083
7.400000 66.148 -50.7235
7.500000 66.229 -51.4084
7.620000 66.337 -52.2308
7.750000 66.463 -53.1746
7.880000 66.600 -54.1628
8.000000 66.731 -55.0994
8.120000 66.856 -56.0587
8.250000 66.991 -57.1415
8.380000 67.121 -58.2043
8.500000 67.235 -59.1229
8.620000 67.343 -60.0074
8.750000 67.460 -60.8873
8.850000 67.552 -61.4806
9.000000 67.691 -62.2480
9.120000 67.810 -62.7859
9.250000 67.954 -63.2989
9.380000 68.109 -63.7298
9.500000 68.262 -64.1236
9.620000 68.425 -64.5437
9.750000 68.613 -65.0035
9.880000 68.798 -65.5100
10.000000 68.966 -66.0502
10.150000 69.170 -66.7875
10.300000 69.349 -67.5253
10.440000 69.494 -68.2485
10.600000 69.634 -68.9828
10.750000 69.734 -69.4934
10.900000 69.812 -69.8452
11.060000 69.892 -69.9076
11.200000 69.954 -69.6938
11.380000 70.063 -69.1585
11.500000 70.161 -68.6038
11.720000 70.394 -67.4506
11.800000 70.503 -67.0626
12.060000 70.924 -65.9309
12.200000 71.169 -65.6465
12.410000 71.551 -65.6045
12.500000 71.698 -65.7401
12.650000 71.928 -66.2037
12.800000 72.125 -66.8099
13.150000 72.411 -68.4766
13.200000 72.435 -68.6728
13.400000 72.480 -69.3553
13.600000 72.491 -69.6766
13.800000 72.476 -69.5330
14.000000 72.488 -69.0441
14.300000 72.579 -67.8142
14.500000 72.716 -66.9886
14.750000 72.936 -66.2880
15.000000 73.189 -66.0974
15.250000 73.410 -66.4709
15.500000 73.576 -67.1581
15.750000 73.677 -67.9891
16.000000 73.720 -68.6739
16.250000 73.741 -69.1011
16.500000 73.762 -69.2723
16.750000 73.813 -69.2555
17.000000 73.901 -69.2599
17.250000 74.018 -69.3765
17.500000 74.152 -69.7144
17.750000 74.277 -70.2449
18.000000 74.387 -70.8970
18.250000 74.475 -71.5880
18.500000 74.547 -72.1995
18.750000 74.611 -72.6975
19.000000 74.673 -73.0506
19.250000 74.745 -73.2640
19.500000 74.830 -73.3574
19.750000 74.933 -73.3482
20.000000 75.057 -73.2707
20.299999 75.236 -73.1516
20.600000 75.443 -73.0852
20.900000 75.669 -73.1552
21.200001 75.892 -73.4119
21.400000 76.027 -73.6607
21.799999 76.253 -74.1904
22.000000 76.345 -74.3807
22.400000 76.506 -74.4432
22.700001 76.636 -74.2099
23.000000 76.797 -73.8693
23.299999 76.985 -73.6143
23.600000 77.179 -73.5534
24.000000 77.405 -73.7698
24.299999 77.532 -73.9844
24.700001 77.656 -74.0547
25.000000 77.748 -73.8640
25.400000 77.912 -73.4442
25.799999 78.126 -73.2476
26.200001 78.333 -73.5562
26.500000 78.442 -74.0306
26.900000 78.506 -74.6243
27.200001 78.512 -74.7554
27.600000 78.526 -74.3447
28.000000 78.622 -73.5070
28.500000 78.882 -72.6736
29.000000 79.191 -72.7237
29.500000 79.435 -73.4637
30.000000 79.591 -74.2763
30.400000 79.684 -74.7600
30.700001 79.746 -75.0405
31.100000 79.820 -75.3465
31.500000 79.878 -75.5348
32.000000 79.942 -75.4516
32.500000 80.044 -75.0102
33.000000 80.217 -74.5721
33.500000 80.425 -74.5190
34.000000 80.602 -74.8540
34.500000 80.724 -75.2544
35.000000 80.811 -75.5027
35.500000 80.884 -75.6062
36.000000 80.939 -75.5617
36.500000 80.985 -75.2104
37.000000 81.071 -74.5002
37.500000 81.237 -73.7444
38.200001 81.538 -73.3839
38.700001 81.714 -73.5863
39.500000 81.927 -73.6884
40.000000 82.091 -73.6140
40.599998 82.307 -73.8633
41.200001 82.460 -74.4158
41.799999 82.549 -74.6595
42.500000 82.686 -74.3568
43.099998 82.863 -74.1415
43.700001 83.030 -74.1734
44.400002 83.186 -74.1940
45.000000 83.311 -74.0733
45.500000 83.414 -73.9534
46.200001 83.546 -73.8159
46.799999 83.634 -73.7791
47.500000 83.657 -73.6517
48.200001 83.626 -72.5483
48.700001 83.707 -70.9972
49.400002 84.103 -69.1772
50.000000 84.525 -69.4131
50.799999 84.813 -71.6363
51.500000 84.813 -73.0199
52.200001 84.820 -73.2768
53.000000 84.933 -73.3215
53.799999 85.076 -73.4650
54.500000 85.219 -73.5910
55.200001 85.353 -73.8321
56.000000 85.464 -73.8655
57.000000 85.670 -73.2832
58.000000 85.957 -73.1865
59.000000 86.177 -73.5486
60.000000 86.340 -73.9288
60.799999 86.413 -74.1280
61.500000 86.460 -73.9128
62.200001 86.551 -73.3859
63.000000 86.724 -72.8394
64.000000 86.984 -72.5986
65.000000 87.237 -72.9000
66.000000 87.417 -73.5522
67.000000 87.533 -74.0177
68.000000 87.642 -74.2051
69.000000 87.762 -74.1812
70.000000 87.918 -73.9946
71.000000 88.108 -73.8891
72.000000 88.296 -73.8954
73.000000 88.469 -73.9041
74.000000 88.629 -73.8766
75.000000 88.784 -73.7903
76.199997 88.980 -73.7739
77.500000 89.177 -74.0267
78.800003 89.366 -74.3360
80.000000 89.549 -74.7186
81.199997 89.725 -75.1038
82.500000 89.911 -75.3925
83.800003 90.090 -75.5020
85.000000 90.261 -75.5115
86.199997 90.429 -75.5994
87.500000 90.595 -75.8196
88.500000 90.712 -76.0386
90.000000 90.886 -76.3837
91.199997 91.035 -76.6625
92.500000 91.203 -76.9842
93.800003 91.373 -77.3076
95.000000 91.524 -77.6216
96.199997 91.665 -77.9364
97.500000 91.815 -78.2356
98.800003 91.973 -78.5571
100.000000 92.117 -78.9341
101.500000 92.283 -79.4226
103.000000 92.440 -79.8877
104.400002 92.580 -80.3098
106.000000 92.741 -80.8511
107.500000 92.883 -81.4470
109.000000 93.014 -81.9716
110.599998 93.166 -82.4697
112.000000 93.295 -83.0144
113.800003 93.427 -83.8085
115.000000 93.508 -84.3067
117.199997 93.671 -85.2307
118.000000 93.736 -85.5575
120.599998 93.946 -86.6206
122.000000 94.031 -87.1835
124.099998 94.126 -88.0057
125.000000 94.162 -88.3801
126.500000 94.224 -89.0492
128.000000 94.291 -89.7538
131.500000 94.444 -91.2697
132.000000 94.463 -91.4711
134.000000 94.523 -92.2683
136.000000 94.565 -93.0720
138.000000 94.597 -93.8770
140.000000 94.623 -94.6553
143.000000 94.650 -95.7469
145.000000 94.656 -96.4130
147.500000 94.647 -97.1202
150.000000 94.640 -97.8065
152.500000 94.617 -98.6894
155.000000 94.577 -99.5098
157.500000 94.532 -100.1622
160.000000 94.479 -100.7102
162.500000 94.415 -101.2293
165.000000 94.350 -101.7207
167.500000 94.284 -102.1510
170.000000 94.213 -102.4885
172.500000 94.134 -102.7452
175.000000 94.048 -102.9574
177.500000 93.954 -103.1348
180.000000 93.858 -103.2573
182.500000 93.763 -103.3173
185.000000 93.665 -103.3107
187.500000 93.563 -103.2433
190.000000 93.457 -103.1370
192.500000 93.349 -102.9788
195.000000 93.237 -102.7550
197.500000 93.123 -102.5105
200.000000 93.014 -102.2583
203.000000 92.899 -101.9018
206.000000 92.785 -101.4496
209.000000 92.655 -100.9510
212.000000 92.524 -100.4470
214.000000 92.446 -100.0928
218.000000 92.298 -99.3137
220.000000 92.215 -98.8941
224.000000 92.042 -97.9457
227.000000 91.920 -97.1846
230.000000 91.801 -96.3971
233.000000 91.684 -95.6011
236.000000 91.563 -94.7858
240.000000 91.397 -93.5787
243.000000 91.274 -92.6091
247.000000 91.111 -91.3474
250.000000 90.999 -90.3763
254.000000 90.866 -88.9487
258.000000 90.724 -87.4538
262.000000 90.583 -85.9292
265.000000 90.488 -84.7985
269.000000 90.370 -83.2986
272.000000 90.286 -82.1456
276.000000 90.176 -80.5319
280.000000 90.068 -78.8740
285.000000 89.934 -76.8932
290.000000 89.815 -74.9581
295.000000 89.711 -72.9623
300.000000 89.612 -70.9122
304.000000 89.533 -69.2890
307.000000 89.476 -68.0846
311.000000 89.404 -66.4723
315.000000 89.341 -64.8442
320.000000 89.275 -62.7900
325.000000 89.211 -60.7640
330.000000 89.158 -58.8615
335.000000 89.114 -57.1894
340.000000 89.054 -55.8268
345.000000 88.915 -54.7112
350.000000 88.670 -53.2209
355.000000 88.419 -50.8666
360.000000 88.263 -48.0826
365.000000 88.176 -45.4265
370.000000 88.098 -43.1227
375.000000 88.009 -41.0503
382.000000 87.843 -38.1786
387.000000 87.696 -36.0254
395.000000 87.450 -32.2479
400.000000 87.315 -29.6479
406.000000 87.176 -26.3993
412.000000 87.067 -23.1398
418.000000 86.985 -19.9205
425.000000 86.912 -16.2178
431.000000 86.858 -13.1080
437.000000 86.810 -10.0498
444.000000 86.764 -6.5222
450.000000 86.728 -3.5427
455.000000 86.692 -1.1376
462.000000 86.641 2.2061
468.000000 86.600 5.0869
475.000000 86.557 8.4559
482.000000 86.518 11.8080
487.000000 86.491 14.1819
494.000000 86.454 17.5040
500.000000 86.424 20.3457
508.000000 86.386 24.1182
515.000000 86.352 27.4235
522.000000 86.318 30.7315
530.000000 86.282 34.5228
538.000000 86.247 38.3010
545.000000 86.216 41.5776
552.000000 86.188 44.8785
560.000000 86.155 48.6732
570.000000 86.111 53.3837
580.000000 86.071 58.0935
590.000000 86.036 62.8114
600.000000 86.002 67.5221
608.000000 85.973 71.2709
615.000000 85.948 74.5473
622.000000 85.929 77.8244
630.000000 85.911 81.5664
640.000000 85.886 86.2174
650.000000 85.856 90.8650
660.000000 85.835 95.5318
670.000000 85.810 100.1948
680.000000 85.783 104.8739
690.000000 85.763 109.5581
700.000000 85.744 114.2205
710.000000 85.723 118.8655
720.000000 85.701 123.5455
730.000000 85.681 128.2465
740.000000 85.663 132.9364
750.000000 85.645 137.5928
762.000000 85.618 143.1182
775.000000 85.592 149.1333
788.000000 85.572 155.2153
800.000000 85.558 160.8323
812.000000 85.545 166.4236
825.000000 85.536 172.4136
838.000000 85.532 178.4168
850.000000 85.523 -176.0149
862.000000 85.514 -170.4661
875.000000 85.508 -164.4516
885.000000 85.501 -159.8217
900.000000 85.489 -152.8660
912.000000 85.483 -147.2917
925.000000 85.480 -141.2340
938.000000 85.478 -135.1449
950.000000 85.478 -129.4883
962.000000 85.476 -123.8353
975.000000 85.475 -117.7452
988.000000 85.475 -111.6591
1000.000000 85.474 -106.0105
1015.000000 85.481 -98.9470
1030.000000 85.489 -91.9038
1044.000000 85.494 -85.2944
1060.000000 85.510 -77.7833
1075.000000 85.527 -70.7426
1090.000000 85.544 -63.6626
1106.000000 85.570 -56.0580
1120.000000 85.597 -49.3844
1138.000000 85.633 -40.8113
1150.000000 85.662 -35.0983
1172.000000 85.726 -24.6301
1180.000000 85.754 -20.8288
1206.000000 85.848 -8.5612
1220.000000 85.898 -1.9608
1241.000000 85.979 7.9525
1250.000000 86.014 12.2004
1265.000000 86.073 19.2758
1280.000000 86.133 26.3301
1315.000000 86.288 42.7581
1320.000000 86.313 45.0929
1340.000000 86.404 54.4173
1360.000000 86.485 63.7413
1380.000000 86.568 73.1342
1400.000000 86.670 82.5652
1430.000000 86.837 96.6277
1450.000000 86.954 106.0010
1475.000000 87.118 117.7149
1500.000000 87.295 129.3959
1525.000000 87.486 140.9915
1550.000000 87.685 152.5397
1575.000000 87.903 164.0404
1600.000000 88.121 175.3784
1625.000000 88.319 -173.2852
1650.000000 88.536 -161.8137
1675.000000 88.778 -150.4738
1700.000000 89.012 -139.2170
1725.000000 89.253 -127.8938
1750.000000 89.525 -116.6403
1775.000000 89.795 -105.5840
1800.000000 90.060 -94.5066
1825.000000 90.344 -83.4385
1850.000000 90.638 -72.5012
1875.000000 90.934 -61.6260
1900.000000 91.243 -50.7751
1925.000000 91.577 -40.0486
1950.000000 91.917 -29.5240
1975.000000 92.261 -19.1281
2000.000000 92.614 -8.8351
2030.000000 93.044 3.2866
2060.000000 93.463 15.0657
2090.000000 93.868 26.6227
2120.000000 94.255 37.9159
2140.000000 94.491 45.3259
2180.000000 94.933 60.0125
2200.000000 95.135 67.2764
2240.000000 95.504 81.7832
2270.000000 95.778 92.5912
2300.000000 96.044 103.2261
2330.000000 96.289 113.7344
2360.000000 96.514 124.1166
2400.000000 96.767 137.6929
2430.000000 96.902 147.7593
2470.000000 97.015 161.2532
2500.000000 97.071 171.4698
2540.000000 97.117 -174.8417
2580.000000 97.125 -161.1827
2620.000000 97.081 -147.4235
2650.000000 97.019 -137.0161
2690.000000 96.899 -122.9454
2720.000000 96.791 -112.2313
2760.000000 96.628 -97.7830
2800.000000 96.443 -83.1676
2850.000000 96.181 -64.5763
2900.000000 95.907 -45.5914
2950.000000 95.642 -26.3141
3000.000000 95.388 -6.9175
3040.000000 95.178 8.6346
3070.000000 95.009 20.3546
3110.000000 94.769 36.1237
3150.000000 94.521 52.0879
3200.000000 94.215 72.2816
3250.000000 93.910 92.6758
3300.000000 93.594 113.3794
3350.000000 93.297 134.5494
3400.000000 93.073 155.9822
3450.000000 92.919 177.2379
3500.000000 92.778 -161.8296
3550.000000 92.611 -141.0573
3600.000000 92.414 -120.2529
3650.000000 92.195 -99.2623
3700.000000 91.975 -78.0168
3750.000000 91.774 -56.5859
3820.000000 91.531 -26.4474
3870.000000 91.377 -4.8717
3950.000000 91.165 29.7203
4000.000000 91.047 51.3458
4060.000000 90.920 77.4038
4120.000000 90.847 103.5347
4180.000000 90.822 129.2695
4250.000000 90.735 158.8535
4310.000000 90.621 -175.6235
4370.000000 90.507 -149.9666
4440.000000 90.380 -119.9209
4500.000000 90.279 -94.0896
4550.000000 90.201 -72.4873
4620.000000 90.123 -42.1692
4680.000000 90.086 -16.2695
4750.000000 90.058 13.8247
4820.000000 90.049 43.7869
4870.000000 90.050 65.0146
4940.000000 90.039 94.4912
5000.000000 90.010 119.6013
5080.000000 89.940 152.9329
5150.000000 89.844 -178.0112
5220.000000 89.714 -149.0632
5300.000000 89.498 -116.1868
5380.000000 89.148 -83.2561
5450.000000 88.727 -53.8467
5520.000000 88.241 -23.4880
5600.000000 87.714 12.4534
5700.000000 87.235 58.1462
5800.000000 86.780 103.7319
5900.000000 86.158 150.9226
6000.000000 85.668 -158.1458
6080.000000 85.791 -115.5239
6150.000000 86.361 -78.5632
6220.000000 87.235 -43.0034
6300.000000 88.414 -4.5833
6400.000000 89.913 40.1470
6500.000000 91.298 82.1924
6600.000000 92.564 122.2983
6700.000000 93.659 160.6924
6800.000000 94.559 -162.1006
6900.000000 95.270 -125.7573
7000.000000 95.787 -90.0220
7100.000000 96.119 -54.7109
7200.000000 96.248 -19.7109
7300.000000 96.144 15.3313
7400.000000 95.813 51.0134
7500.000000 95.320 87.7510
7620.000000 94.608 133.3413
7750.000000 93.800 -175.7205
7880.000000 92.986 -123.6902
8000.000000 92.226 -74.6753
8120.000000 91.502 -24.7329
8250.000000 90.802 30.0781
8380.000000 90.190 85.2666
8500.000000 89.681 136.3289
8620.000000 89.201 -172.4749
8750.000000 88.736 -116.9492
8850.000000 88.410 -74.5212
9000.000000 87.840 -11.7148
9120.000000 87.128 38.3906
9250.000000 85.939 95.5898
9380.000000 84.815 159.0479
9500.000000 84.749 -140.5273
9620.000000 85.320 -83.6426
9750.000000 85.898 -25.7148
9880.000000 86.295 30.8384
10000.000000 86.574 82.7734
10150.000000 86.872 147.6846
10300.000000 87.183 -147.3091
10440.000000 87.516 -86.6997
10600.000000 87.961 -17.6592
10750.000000 88.439 46.7139
10900.000000 88.963 110.7124
11060.000000 89.584 178.6523
11200.000000 90.220 -122.2744
11380.000000 91.150 -47.4277
11500.000000 91.800 1.6021
11720.000000 93.016 89.7437
11800.000000 93.458 121.0923
12060.000000 94.655 -140.1089
12200.000000 95.057 -88.3145
12410.000000 95.274 -11.3203
12500.000000 95.227 21.8525
12650.000000 95.021 77.7856
12800.000000 94.719 134.5693
13150.000000 93.940 -89.6328
13200.000000 93.857 -69.9565
13400.000000 93.643 8.8057
13600.000000 93.612 87.0239
13800.000000 93.722 163.8052
14000.000000 93.846 -121.6982
14300.000000 93.604 -14.7666
14500.000000 92.854 54.8550
14750.000000 91.167 143.7197
15000.000000 88.918 -122.8706
15250.000000 86.535 -24.9258
15500.000000 84.337 75.9238
15750.000000 82.394 178.3481
16000.000000 80.684 -78.0010
16250.000000 79.265 26.4917
16500.000000 78.202 131.2246
16750.000000 77.551 -124.9912
17000.000000 77.199 -23.7031
17250.000000 76.849 74.9487
17500.000000 76.336 172.2354
17750.000000 75.711 -90.7334
18000.000000 75.117 6.5430
18250.000000 74.724 103.6094
18500.000000 74.675 -160.6401
18750.000000 75.007 -67.7979
19000.000000 75.595 20.1094
19250.000000 76.124 101.0518
19500.000000 76.175 173.3926
19750.000000 75.513 -126.8574
