* Measurement data measured by REW V5.20.9
* Source: Headset (USB-C to 3.5mm Headphone Jack Adapter), MICROPHONE (Master Volume), L, volume: 0.800. Timing signal peak level -24.2 dBFS, measurement signal peak level -25.1 dBFS
* Format: 256k Log Swept Sine, 1 sweep at -12.0 dBFS using an acoustic timing reference
* Dated: 26/10/2023 9:18:16 PM
* REW Settings:
*  C-weighting compensation: Off
*  Target level: 75.0 dB
* Note: ; Delay -0.0302 ms (-10 mm, -0.41 in) using estimated IR delay relative to Acoustic reference on SPEAKER L with no timing offset
* Measurement: MP145 Bass L
* Smoothing: 1/24 octave
* Frequency Step: 1/48 octave
* Start Frequency: 1.000 Hz
*
* Freq(Hz) SPL(dB) Phase(degrees)
1.000000 72.849 -69.3889
1.015000 72.712 -70.5406
1.030000 72.572 -71.6144
1.044000 72.439 -72.5381
1.060000 72.284 -73.4911
1.075000 72.136 -74.2753
1.090000 71.985 -74.9444
1.106000 71.821 -75.5316
1.120000 71.671 -75.9931
1.138000 71.470 -76.5298
1.150000 71.331 -76.8511
1.172000 71.068 -77.3612
1.180000 70.969 -77.5206
1.206000 70.642 -77.9393
1.220000 70.461 -78.0997
1.241000 70.185 -78.2515
1.250000 70.065 -78.2831
1.265000 69.865 -78.2899
1.280000 69.663 -78.2382
1.315000 69.191 -77.8813
1.320000 69.124 -77.8025
1.340000 68.856 -77.4155
1.360000 68.591 -76.9112
1.380000 68.331 -76.2858
1.400000 68.076 -75.5359
1.430000 67.707 -74.1698
1.450000 67.473 -73.0930
1.475000 67.190 -71.5360
1.500000 66.885 -69.5978
1.525000 66.555 -67.2897
1.550000 66.210 -64.6652
1.575000 65.858 -61.7775
1.600000 65.506 -58.6801
1.625000 65.164 -55.4264
1.650000 64.840 -52.0697
1.675000 64.541 -48.6635
1.700000 64.278 -45.2611
1.725000 64.056 -41.9160
1.750000 63.886 -38.6815
1.775000 63.776 -35.6110
1.800000 63.733 -32.7578
1.825000 63.766 -30.1755
1.850000 63.887 -27.8173
1.875000 64.101 -25.4795
1.900000 64.397 -23.1682
1.925000 64.764 -20.8994
1.950000 65.190 -18.6889
1.975000 65.663 -16.5529
2.000000 66.172 -14.5073
2.030000 66.812 -12.1944
2.060000 67.467 -10.0623
2.090000 68.116 -8.1385
2.120000 68.739 -6.4508
2.140000 69.129 -5.4704
2.180000 69.825 -3.8939
2.200000 70.119 -3.3145
2.240000 70.654 -2.6720
2.270000 71.032 -2.6143
2.300000 71.392 -2.8633
2.330000 71.736 -3.3677
2.360000 72.064 -4.0763
2.400000 72.478 -5.2501
2.430000 72.773 -6.2358
2.470000 73.149 -7.5930
2.500000 73.419 -8.5767
2.540000 73.764 -9.7453
2.580000 74.095 -10.6763
2.620000 74.400 -11.6071
2.650000 74.612 -12.3404
2.690000 74.874 -13.3514
2.720000 75.057 -14.1256
2.760000 75.286 -15.1654
2.800000 75.502 -16.1985
2.850000 75.757 -17.4548
2.900000 76.001 -18.6415
2.950000 76.241 -19.7317
3.000000 76.460 -20.7599
3.040000 76.621 -21.5486
3.070000 76.735 -22.1220
3.110000 76.879 -22.8643
3.150000 77.016 -23.5833
3.200000 77.181 -24.4530
3.250000 77.342 -25.2948
3.300000 77.504 -26.1133
3.350000 77.661 -26.9076
3.400000 77.809 -27.6739
3.450000 77.951 -28.4104
3.500000 78.089 -29.1154
3.550000 78.224 -29.7874
3.600000 78.360 -30.4247
3.650000 78.498 -31.0256
3.700000 78.640 -31.5765
3.750000 78.781 -32.0593
3.820000 78.979 -32.6581
3.870000 79.120 -33.0592
3.950000 79.344 -33.7127
4.000000 79.483 -34.1612
4.060000 79.649 -34.7670
4.120000 79.815 -35.4200
4.180000 79.982 -36.1032
4.250000 80.174 -36.9220
4.310000 80.334 -37.6283
4.370000 80.488 -38.3254
4.440000 80.661 -39.1205
4.500000 80.804 -39.8034
4.550000 80.920 -40.3724
4.620000 81.077 -41.1647
4.680000 81.206 -41.8362
4.750000 81.350 -42.6057
4.820000 81.485 -43.3705
4.870000 81.575 -43.9227
4.940000 81.695 -44.6876
5.000000 81.795 -45.3208
5.080000 81.927 -46.1080
5.150000 82.045 -46.7206
5.220000 82.159 -47.2587
5.300000 82.285 -47.8051
5.380000 82.415 -48.3041
5.450000 82.537 -48.7231
5.520000 82.670 -49.1376
5.600000 82.832 -49.5528
5.700000 83.047 -50.0306
5.800000 83.277 -50.5608
5.900000 83.527 -51.2299
6.000000 83.800 -51.9677
6.080000 84.030 -52.6302
6.150000 84.233 -53.2948
6.220000 84.433 -54.0652
6.300000 84.662 -55.0799
6.400000 84.955 -56.5149
6.500000 85.241 -58.1273
6.600000 85.503 -59.9092
6.700000 85.745 -61.8964
6.800000 85.970 -64.0655
6.900000 86.169 -66.3425
7.000000 86.332 -68.6711
7.100000 86.464 -71.1203
7.200000 86.566 -73.6323
7.300000 86.634 -76.1142
7.400000 86.665 -78.5422
7.500000 86.661 -80.9801
7.620000 86.614 -83.7787
7.750000 86.519 -86.4950
7.880000 86.367 -88.9716
8.000000 86.198 -90.9324
8.120000 86.020 -92.4503
8.250000 85.798 -93.6369
8.380000 85.589 -94.3904
8.500000 85.441 -94.6784
8.620000 85.316 -94.5290
8.750000 85.238 -94.1586
8.850000 85.239 -93.8602
9.000000 85.329 -93.2032
9.120000 85.455 -92.7925
9.250000 85.638 -92.6947
9.380000 85.879 -92.8360
9.500000 86.107 -93.2382
9.620000 86.325 -93.9730
9.750000 86.563 -95.1010
9.880000 86.774 -96.4154
10.000000 86.934 -97.7793
10.150000 87.097 -99.6825
10.300000 87.215 -101.5208
10.440000 87.279 -103.2045
10.600000 87.317 -104.9692
10.750000 87.327 -106.3381
10.900000 87.315 -107.4795
11.060000 87.313 -108.4118
11.200000 87.315 -108.9659
11.380000 87.348 -109.5076
11.500000 87.396 -109.7631
11.720000 87.523 -110.1804
11.800000 87.582 -110.3799
12.060000 87.812 -111.1589
12.200000 87.936 -111.7588
12.410000 88.121 -112.8526
12.500000 88.188 -113.3630
12.650000 88.288 -114.2984
12.800000 88.371 -115.2426
13.150000 88.486 -117.2677
13.200000 88.497 -117.5146
13.400000 88.527 -118.3816
13.600000 88.556 -119.0614
13.800000 88.590 -119.5353
14.000000 88.644 -119.9166
14.300000 88.762 -120.3928
14.500000 88.865 -120.7753
14.750000 89.002 -121.3934
15.000000 89.140 -122.1922
15.250000 89.261 -123.1461
15.500000 89.361 -124.1794
15.750000 89.436 -125.2430
16.000000 89.490 -126.2670
16.250000 89.529 -127.2187
16.500000 89.557 -128.0854
16.750000 89.581 -128.8600
17.000000 89.607 -129.5559
17.250000 89.638 -130.1875
17.500000 89.677 -130.7734
17.750000 89.726 -131.3522
18.000000 89.785 -131.9510
18.250000 89.851 -132.5992
18.500000 89.919 -133.3241
18.750000 89.982 -134.1193
19.000000 90.037 -134.9780
19.250000 90.078 -135.8555
19.500000 90.105 -136.7098
19.750000 90.119 -137.5072
20.000000 90.127 -138.2072
20.299999 90.137 -138.9236
20.600000 90.157 -139.5330
20.900000 90.192 -140.0938
21.200001 90.241 -140.6791
21.400000 90.277 -141.1126
21.799999 90.346 -142.0892
22.000000 90.375 -142.6203
22.400000 90.410 -143.7040
22.700001 90.418 -144.4669
23.000000 90.418 -145.1322
23.299999 90.418 -145.6890
23.600000 90.424 -146.1612
24.000000 90.452 -146.7335
24.299999 90.485 -147.1869
24.700001 90.535 -147.8698
25.000000 90.568 -148.4226
25.400000 90.602 -149.1417
25.799999 90.633 -149.7706
26.200001 90.677 -150.3370
26.500000 90.720 -150.7943
26.900000 90.776 -151.5261
27.200001 90.803 -152.1530
27.600000 90.805 -152.9654
28.000000 90.778 -153.5540
28.500000 90.760 -153.9243
29.000000 90.797 -154.3618
29.500000 90.821 -155.3927
30.000000 90.703 -156.7341
30.400000 90.481 -157.2533
30.700001 90.281 -156.9385
31.100000 90.086 -155.5624
31.500000 90.079 -153.6888
32.000000 90.337 -152.0850
32.500000 90.688 -152.2802
33.000000 90.925 -153.8833
33.500000 91.011 -155.8769
34.000000 91.012 -157.6272
34.500000 90.995 -159.1265
35.000000 90.974 -160.5190
35.500000 90.942 -161.7747
36.000000 90.912 -162.7979
36.500000 90.904 -163.6272
37.000000 90.916 -164.3799
37.500000 90.936 -165.0847
38.200001 90.966 -165.9179
38.700001 90.993 -166.4327
39.500000 91.021 -167.2226
40.000000 91.022 -167.6186
40.599998 91.024 -167.9642
41.200001 91.037 -168.3334
41.799999 91.043 -168.8377
42.500000 91.024 -169.4780
43.099998 91.001 -169.9628
43.700001 90.987 -170.4295
44.400002 90.986 -171.0322
45.000000 90.991 -171.6390
45.500000 90.989 -172.1953
46.200001 90.966 -172.8939
46.799999 90.950 -173.2854
47.500000 90.966 -173.6954
48.200001 90.982 -174.3434
48.700001 90.960 -174.8217
49.400002 90.906 -175.1503
50.000000 90.897 -175.2132
50.799999 90.937 -175.6059
51.500000 90.946 -176.2949
52.200001 90.919 -176.9290
53.000000 90.890 -177.4975
53.799999 90.871 -178.0289
54.500000 90.863 -178.4392
55.200001 90.869 -178.8589
56.000000 90.873 -179.4318
57.000000 90.850 179.8908
58.000000 90.816 179.3713
59.000000 90.788 178.9431
60.000000 90.777 178.4071
60.799999 90.756 177.8485
61.500000 90.726 177.3911
62.200001 90.698 177.0167
63.000000 90.683 176.6201
64.000000 90.678 176.0292
65.000000 90.655 175.3820
66.000000 90.616 174.8778
67.000000 90.581 174.4713
68.000000 90.545 174.0987
69.000000 90.512 173.7508
70.000000 90.481 173.4081
71.000000 90.459 173.0587
72.000000 90.439 172.6265
73.000000 90.408 172.2028
74.000000 90.381 171.7784
75.000000 90.344 171.2861
76.199997 90.281 170.7717
77.500000 90.223 170.2864
78.800003 90.178 169.8018
80.000000 90.150 169.3723
81.199997 90.135 168.9392
82.500000 90.104 168.4077
83.800003 90.046 168.0388
85.000000 89.997 167.7426
86.199997 89.947 167.3336
87.500000 89.886 166.6963
88.500000 89.819 166.1938
90.000000 89.738 165.8369
91.199997 89.726 165.6723
92.500000 89.703 165.4517
93.800003 89.637 165.4144
95.000000 89.563 165.4786
96.199997 89.481 165.2897
97.500000 89.366 164.7303
98.800003 89.240 163.8392
100.000000 89.085 163.2319
101.500000 89.033 163.7722
103.000000 89.219 163.9005
104.400002 89.344 163.4260
106.000000 89.380 162.9203
107.500000 89.341 162.5325
109.000000 89.283 162.0643
110.599998 89.211 161.4520
112.000000 89.157 161.0486
113.800003 89.106 160.7134
115.000000 89.070 160.5907
117.199997 88.997 160.3897
118.000000 88.966 160.2593
120.599998 88.858 159.7362
122.000000 88.810 159.3921
124.099998 88.739 158.8472
125.000000 88.703 158.6463
126.500000 88.636 158.4290
128.000000 88.569 158.3300
131.500000 88.360 157.9429
132.000000 88.314 157.8868
134.000000 88.159 157.9341
136.000000 88.128 157.7179
138.000000 88.106 157.1006
140.000000 88.059 156.7335
143.000000 87.933 156.6172
145.000000 87.838 156.6161
147.500000 87.730 156.5886
150.000000 87.638 156.8640
152.500000 87.555 157.4622
155.000000 87.499 158.0077
157.500000 87.503 158.2921
160.000000 87.562 158.4000
162.500000 87.600 158.1373
165.000000 87.559 157.1571
167.500000 87.438 156.0748
170.000000 87.437 155.8177
172.500000 87.494 155.5747
175.000000 87.457 155.3368
177.500000 87.353 155.0287
180.000000 87.255 154.6915
182.500000 87.174 154.4756
185.000000 87.099 154.4123
187.500000 87.035 154.4059
190.000000 86.988 154.3155
192.500000 86.936 154.0852
195.000000 86.875 153.7921
197.500000 86.815 153.5579
200.000000 86.758 153.3812
203.000000 86.664 153.1531
206.000000 86.559 153.0161
209.000000 86.475 152.9227
212.000000 86.397 152.8237
214.000000 86.342 152.7724
218.000000 86.233 152.7008
220.000000 86.179 152.6584
224.000000 86.068 152.5847
227.000000 85.988 152.5674
230.000000 85.906 152.5445
233.000000 85.822 152.5148
236.000000 85.745 152.5453
240.000000 85.658 152.6615
243.000000 85.589 152.7333
247.000000 85.494 152.8295
250.000000 85.427 152.8929
254.000000 85.341 152.9171
258.000000 85.255 152.9431
262.000000 85.170 153.0018
265.000000 85.107 153.0819
269.000000 85.021 153.2053
272.000000 84.954 153.2831
276.000000 84.867 153.4261
280.000000 84.786 153.6004
285.000000 84.694 153.8095
290.000000 84.598 154.0381
295.000000 84.505 154.3038
300.000000 84.429 154.5897
304.000000 84.380 154.8221
307.000000 84.346 154.9698
311.000000 84.300 155.1050
315.000000 84.251 155.1792
320.000000 84.182 155.2339
325.000000 84.105 155.3217
330.000000 84.028 155.4310
335.000000 83.949 155.5519
340.000000 83.871 155.7049
345.000000 83.792 155.9116
350.000000 83.713 156.1459
355.000000 83.630 156.3393
360.000000 83.547 156.5323
365.000000 83.468 156.7593
370.000000 83.399 157.0052
375.000000 83.333 157.2534
382.000000 83.237 157.5987
387.000000 83.168 157.8388
395.000000 83.065 158.2407
400.000000 83.006 158.5281
406.000000 82.933 158.8859
412.000000 82.859 159.2321
418.000000 82.784 159.5860
425.000000 82.701 160.0065
431.000000 82.634 160.3621
437.000000 82.565 160.7273
444.000000 82.486 161.1617
450.000000 82.423 161.5398
455.000000 82.376 161.8405
462.000000 82.310 162.2519
468.000000 82.254 162.6060
475.000000 82.190 163.0308
482.000000 82.127 163.4893
487.000000 82.083 163.8149
494.000000 82.020 164.2429
500.000000 81.969 164.6221
508.000000 81.904 165.1656
515.000000 81.847 165.6357
522.000000 81.790 166.0903
530.000000 81.728 166.5898
538.000000 81.671 167.1026
545.000000 81.626 167.5798
552.000000 81.582 168.0647
560.000000 81.527 168.6306
570.000000 81.462 169.3336
580.000000 81.405 169.9955
590.000000 81.342 170.6773
600.000000 81.288 171.3665
608.000000 81.250 171.9159
615.000000 81.219 172.3962
622.000000 81.189 172.8782
630.000000 81.151 173.4243
640.000000 81.103 174.1212
650.000000 81.062 174.8639
660.000000 81.023 175.6142
670.000000 80.986 176.3214
680.000000 80.958 177.0019
690.000000 80.934 177.7120
700.000000 80.905 178.4353
710.000000 80.879 179.1637
720.000000 80.858 179.8953
730.000000 80.841 -179.3760
740.000000 80.829 -178.6527
750.000000 80.818 -177.9432
762.000000 80.802 -177.0553
775.000000 80.793 -176.0986
788.000000 80.791 -175.1802
800.000000 80.795 -174.3241
812.000000 80.805 -173.4762
825.000000 80.823 -172.5595
838.000000 80.844 -171.6646
850.000000 80.866 -170.8542
862.000000 80.891 -170.0624
875.000000 80.925 -169.2285
885.000000 80.957 -168.5851
900.000000 81.009 -167.6420
912.000000 81.053 -166.9194
925.000000 81.103 -166.1531
938.000000 81.155 -165.4124
950.000000 81.208 -164.7659
962.000000 81.263 -164.1420
975.000000 81.322 -163.5050
988.000000 81.384 -162.9012
1000.000000 81.446 -162.3682
1015.000000 81.527 -161.7372
1030.000000 81.608 -161.1432
1044.000000 81.683 -160.6295
1060.000000 81.766 -160.0958
1075.000000 81.844 -159.6255
1090.000000 81.924 -159.1862
1106.000000 82.004 -158.7561
1120.000000 82.069 -158.3972
1138.000000 82.154 -157.9655
1150.000000 82.210 -157.7024
1172.000000 82.311 -157.2565
1180.000000 82.346 -157.1077
1206.000000 82.455 -156.6584
1220.000000 82.510 -156.4336
1241.000000 82.588 -156.1014
1250.000000 82.622 -155.9608
1265.000000 82.676 -155.7454
1280.000000 82.726 -155.5396
1315.000000 82.844 -155.0618
1320.000000 82.860 -154.9959
1340.000000 82.924 -154.7352
1360.000000 82.982 -154.4900
1380.000000 83.038 -154.2528
1400.000000 83.093 -154.0113
1430.000000 83.177 -153.6583
1450.000000 83.228 -153.4228
1475.000000 83.288 -153.1360
1500.000000 83.348 -152.8375
1525.000000 83.410 -152.5364
1550.000000 83.470 -152.2494
1575.000000 83.526 -151.9637
1600.000000 83.582 -151.6796
1625.000000 83.642 -151.4032
1650.000000 83.701 -151.1537
1675.000000 83.759 -150.9124
1700.000000 83.815 -150.6508
1725.000000 83.872 -150.3996
1750.000000 83.931 -150.1634
1775.000000 83.988 -149.9358
1800.000000 84.047 -149.7278
1825.000000 84.106 -149.5318
1850.000000 84.164 -149.3397
1875.000000 84.221 -149.1478
1900.000000 84.275 -148.9790
1925.000000 84.328 -148.8309
1950.000000 84.383 -148.6951
1975.000000 84.438 -148.5730
2000.000000 84.490 -148.4659
2030.000000 84.551 -148.3557
2060.000000 84.608 -148.2762
2090.000000 84.660 -148.2045
2120.000000 84.709 -148.1352
2140.000000 84.739 -148.0893
2180.000000 84.796 -147.9897
2200.000000 84.822 -147.9387
2240.000000 84.871 -147.8215
2270.000000 84.906 -147.7197
2300.000000 84.941 -147.6149
2330.000000 84.976 -147.5145
2360.000000 85.010 -147.4037
2400.000000 85.058 -147.2362
2430.000000 85.094 -147.1061
2470.000000 85.143 -146.9325
2500.000000 85.184 -146.8122
2540.000000 85.241 -146.6643
2580.000000 85.299 -146.5481
2620.000000 85.360 -146.4868
2650.000000 85.406 -146.4681
2690.000000 85.463 -146.4893
2720.000000 85.503 -146.5387
2760.000000 85.556 -146.6387
2800.000000 85.606 -146.7737
2850.000000 85.662 -147.0214
2900.000000 85.703 -147.3945
2950.000000 85.717 -147.8713
3000.000000 85.697 -148.3436
3040.000000 85.656 -148.6415
3070.000000 85.616 -148.7952
3110.000000 85.557 -148.8980
3150.000000 85.496 -148.9043
3200.000000 85.417 -148.7922
3250.000000 85.342 -148.5522
3300.000000 85.275 -148.2319
3350.000000 85.214 -147.8260
3400.000000 85.156 -147.3590
3450.000000 85.106 -146.8598
3500.000000 85.062 -146.3010
3550.000000 85.025 -145.7063
3600.000000 84.997 -145.1078
3650.000000 84.975 -144.4823
3700.000000 84.960 -143.8176
3750.000000 84.953 -143.1418
3820.000000 84.957 -142.1961
3870.000000 84.969 -141.5156
3950.000000 85.007 -140.4383
4000.000000 85.043 -139.7901
4060.000000 85.096 -139.0590
4120.000000 85.160 -138.3799
4180.000000 85.229 -137.7762
4250.000000 85.320 -137.1556
4310.000000 85.409 -136.6934
4370.000000 85.504 -136.3121
4440.000000 85.618 -136.0033
4500.000000 85.717 -135.8852
4550.000000 85.798 -135.9037
4620.000000 85.902 -136.0901
4680.000000 85.978 -136.3921
4750.000000 86.043 -136.9169
4820.000000 86.068 -137.5785
4870.000000 86.054 -138.0640
4940.000000 85.994 -138.6351
5000.000000 85.919 -138.9478
5080.000000 85.808 -139.1227
5150.000000 85.713 -139.1350
5220.000000 85.619 -139.0801
5300.000000 85.501 -138.9690
5380.000000 85.363 -138.7539
5450.000000 85.227 -138.4133
5520.000000 85.087 -137.8501
5600.000000 84.942 -136.9097
5700.000000 84.809 -135.4675
5800.000000 84.733 -133.9939
5900.000000 84.690 -132.6258
6000.000000 84.658 -131.3023
6080.000000 84.638 -130.2234
6150.000000 84.627 -129.2238
6220.000000 84.623 -128.1759
6300.000000 84.635 -126.9479
6400.000000 84.680 -125.3814
6500.000000 84.756 -123.8099
6600.000000 84.854 -122.2860
6700.000000 84.965 -120.7506
6800.000000 85.096 -119.0054
6900.000000 85.300 -117.0012
7000.000000 85.610 -115.0592
7100.000000 86.011 -113.4477
7200.000000 86.493 -112.2418
7300.000000 87.055 -111.5787
7400.000000 87.684 -111.6829
7500.000000 88.353 -112.7109
7620.000000 89.166 -115.3092
7750.000000 89.992 -120.0094
7880.000000 90.650 -126.7672
8000.000000 90.996 -134.4972
8120.000000 91.025 -142.8763
8250.000000 90.706 -151.6329
8380.000000 90.123 -159.3278
8500.000000 89.444 -165.5544
8620.000000 88.642 -171.2359
8750.000000 87.579 -176.6141
8850.000000 86.591 -179.6220
9000.000000 84.913 179.3203
9120.000000 83.719 -178.3074
9250.000000 82.935 -174.9061
9380.000000 82.570 -173.1686
9500.000000 82.306 -173.5918
9620.000000 81.920 -175.3724
9750.000000 81.306 -178.0885
9880.000000 80.445 178.5786
10000.000000 79.249 176.1130
10150.000000 77.088 179.1517
10300.000000 75.116 -169.2362
10440.000000 74.501 -157.2709
10600.000000 74.715 -147.6283
10750.000000 75.109 -141.9666
10900.000000 75.571 -138.4879
11060.000000 76.131 -137.6628
11200.000000 76.457 -140.4253
11380.000000 76.019 -146.9338
11500.000000 75.031 -148.7596
11720.000000 72.894 -140.8862
11800.000000 72.429 -136.1224
12060.000000 72.172 -122.1412
12200.000000 72.415 -116.4481
12410.000000 72.942 -109.7768
12500.000000 73.214 -107.4414
12650.000000 73.701 -104.2651
12800.000000 74.190 -101.9263
13150.000000 75.437 -97.5554
13200.000000 75.673 -97.0751
13400.000000 76.723 -96.6886
13600.000000 77.724 -99.1838
13800.000000 78.514 -104.1181
14000.000000 78.807 -110.9339
14300.000000 78.309 -113.8218
14500.000000 78.925 -110.4440
14750.000000 80.767 -111.0269
15000.000000 82.569 -119.2084
15250.000000 84.034 -130.9828
15500.000000 85.686 -145.1083
15750.000000 87.184 -165.6607
16000.000000 88.239 166.9296
16250.000000 88.333 130.7032
16500.000000 86.653 91.2312
16750.000000 82.870 64.0363
17000.000000 77.550 58.0491
17250.000000 72.806 60.3783
17500.000000 69.855 61.7296
17750.000000 67.990 63.0452
18000.000000 67.061 61.5267
18250.000000 66.574 55.8195
18500.000000 66.221 46.7188
18750.000000 65.954 33.8613
19000.000000 65.585 16.8306
19250.000000 64.996 -3.9799
19500.000000 64.153 -28.7368
19750.000000 62.915 -55.0573
