* Measurement data measured by REW V5.20.9
* Source: USB-C to 3.5mm Headphone Jack Adapter, USB-C to 3.5mm Headphone Jack Adapter, 0, volume: 0.138
* Format: 256k Log Swept Sine, 1 sweep at -12.0 dBFS with no timing reference
* Dated: 23/07/2022 11:47:39 AM
* REW Settings:
*  C-weighting compensation: Off
*  Target level: 75.0 dB
* Note: ; 
* Measurement: Nio L
* Smoothing: 1/24 octave
* Frequency Step: 1/48 octave
* Start Frequency: 1.000 Hz
*
* Freq(Hz) SPL(dB) Phase(degrees)
1.000000 69.209 -162.1539
1.015000 69.366 -162.0115
1.030000 69.526 -161.9020
1.044000 69.679 -161.8261
1.060000 69.857 -161.7690
1.075000 70.027 -161.7432
1.090000 70.200 -161.7428
1.106000 70.387 -161.7692
1.120000 70.552 -161.8138
1.138000 70.767 -161.8992
1.150000 70.911 -161.9726
1.172000 71.178 -162.1393
1.180000 71.275 -162.2097
1.206000 71.591 -162.4712
1.220000 71.762 -162.6312
1.241000 72.016 -162.8939
1.250000 72.125 -163.0141
1.265000 72.305 -163.2237
1.280000 72.483 -163.4438
1.315000 72.893 -163.9914
1.320000 72.950 -164.0729
1.340000 73.176 -164.4052
1.360000 73.399 -164.7526
1.380000 73.620 -165.1321
1.400000 73.841 -165.5427
1.430000 74.170 -166.2126
1.450000 74.388 -166.6920
1.475000 74.659 -167.3246
1.500000 74.927 -167.9905
1.525000 75.193 -168.6856
1.550000 75.455 -169.4058
1.575000 75.715 -170.1470
1.600000 75.970 -170.9052
1.625000 76.222 -171.6764
1.650000 76.469 -172.4564
1.675000 76.712 -173.2411
1.700000 76.950 -174.0348
1.725000 77.184 -174.8567
1.750000 77.414 -175.7050
1.775000 77.641 -176.5767
1.800000 77.864 -177.4687
1.825000 78.083 -178.3776
1.850000 78.299 -179.3006
1.875000 78.511 179.7657
1.900000 78.720 178.8243
1.925000 78.926 177.8783
1.950000 79.128 176.9309
1.975000 79.327 175.9852
2.000000 79.522 175.0444
2.030000 79.753 173.9242
2.060000 79.978 172.7963
2.090000 80.198 171.6575
2.120000 80.412 170.5101
2.140000 80.552 169.7416
2.180000 80.827 168.1992
2.200000 80.961 167.4266
2.240000 81.223 165.8821
2.270000 81.415 164.7271
2.300000 81.603 163.5775
2.330000 81.787 162.4357
2.360000 81.968 161.3040
2.400000 82.202 159.7996
2.430000 82.372 158.6718
2.470000 82.592 157.1712
2.500000 82.752 156.0497
2.540000 82.960 154.5618
2.580000 83.161 153.0853
2.620000 83.356 151.6230
2.650000 83.499 150.5374
2.690000 83.685 149.1070
2.720000 83.820 148.0450
2.760000 83.995 146.6370
2.800000 84.164 145.2407
2.850000 84.366 143.5151
2.900000 84.560 141.8161
2.950000 84.746 140.1486
3.000000 84.927 138.5172
3.040000 85.067 137.2410
3.070000 85.169 136.2987
3.110000 85.300 135.0606
3.150000 85.426 133.8435
3.200000 85.578 132.3518
3.250000 85.724 130.8932
3.300000 85.865 129.4680
3.350000 86.003 128.0762
3.400000 86.137 126.7182
3.450000 86.265 125.3942
3.500000 86.387 124.1039
3.550000 86.506 122.8466
3.600000 86.621 121.6219
3.650000 86.734 120.4291
3.700000 86.846 119.2678
3.750000 86.956 118.1418
3.820000 87.104 116.6273
3.870000 87.206 115.5841
3.950000 87.367 113.9702
4.000000 87.467 112.9896
4.060000 87.586 111.8364
4.120000 87.704 110.7212
4.180000 87.820 109.6423
4.250000 87.954 108.4203
4.310000 88.068 107.3965
4.370000 88.182 106.3871
4.440000 88.314 105.2335
4.500000 88.428 104.2715
4.550000 88.521 103.4844
4.620000 88.652 102.3979
4.680000 88.762 101.4745
4.750000 88.890 100.4016
4.820000 89.017 99.3425
4.870000 89.106 98.5939
4.940000 89.230 97.5544
5.000000 89.335 96.6692
5.080000 89.471 95.4939
5.150000 89.587 94.4715
5.220000 89.701 93.4562
5.300000 89.828 92.3061
5.380000 89.950 91.1686
5.450000 90.053 90.1824
5.520000 90.153 89.2036
5.600000 90.264 88.0975
5.700000 90.396 86.7393
5.800000 90.522 85.4107
5.900000 90.640 84.1080
6.000000 90.753 82.8362
6.080000 90.841 81.8444
6.150000 90.914 80.9951
6.220000 90.985 80.1621
6.300000 91.063 79.2297
6.400000 91.158 78.0927
6.500000 91.249 76.9893
6.600000 91.338 75.9181
6.700000 91.423 74.8736
6.800000 91.507 73.8538
6.900000 91.588 72.8619
7.000000 91.668 71.8922
7.100000 91.745 70.9391
7.200000 91.821 70.0055
7.300000 91.895 69.0898
7.400000 91.967 68.1884
7.500000 92.037 67.3005
7.620000 92.119 66.2545
7.750000 92.204 65.1429
7.880000 92.286 64.0534
8.000000 92.358 63.0675
8.120000 92.429 62.1001
8.250000 92.502 61.0737
8.380000 92.573 60.0677
8.500000 92.637 59.1560
8.620000 92.698 58.2612
8.750000 92.764 57.3062
8.850000 92.813 56.5812
9.000000 92.884 55.5093
9.120000 92.939 54.6607
9.250000 92.998 53.7507
9.380000 93.054 52.8498
9.500000 93.104 52.0247
9.620000 93.151 51.2064
9.750000 93.200 50.3297
9.880000 93.247 49.4634
10.000000 93.287 48.6736
10.150000 93.334 47.7049
10.300000 93.378 46.7558
10.440000 93.417 45.8912
10.600000 93.458 44.9299
10.750000 93.494 44.0539
10.900000 93.529 43.2034
11.060000 93.566 42.3227
11.200000 93.597 41.5719
11.380000 93.637 40.6337
11.500000 93.663 40.0211
11.720000 93.712 38.9253
11.800000 93.730 38.5331
12.060000 93.788 37.2813
12.200000 93.819 36.6178
12.410000 93.866 35.6352
12.500000 93.885 35.2173
12.650000 93.918 34.5256
12.800000 93.950 33.8391
13.150000 94.021 32.2558
13.200000 94.030 32.0320
13.400000 94.068 31.1434
13.600000 94.103 30.2680
13.800000 94.136 29.4060
14.000000 94.168 28.5594
14.300000 94.214 27.3115
14.500000 94.244 26.4880
14.750000 94.280 25.4601
15.000000 94.312 24.4219
15.250000 94.339 23.3749
15.500000 94.357 22.3277
15.750000 94.364 21.3003
16.000000 94.361 20.3295
16.250000 94.351 19.4381
16.500000 94.339 18.6394
16.750000 94.333 17.9315
17.000000 94.336 17.2740
17.250000 94.352 16.6232
17.500000 94.376 15.9377
17.750000 94.404 15.1783
18.000000 94.425 14.3519
18.250000 94.435 13.4918
18.500000 94.430 12.6418
18.750000 94.411 11.8699
19.000000 94.388 11.2157
19.250000 94.369 10.6802
19.500000 94.362 10.2462
19.750000 94.374 9.8483
20.000000 94.404 9.4155
20.299999 94.455 8.7886
20.600000 94.509 8.0092
20.900000 94.550 7.1074
21.200001 94.574 6.1587
21.400000 94.579 5.5416
21.799999 94.579 4.3916
22.000000 94.577 3.8564
22.400000 94.576 2.8190
22.700001 94.575 2.0260
23.000000 94.568 1.2162
23.299999 94.550 0.4210
23.600000 94.523 -0.3116
24.000000 94.484 -1.1353
24.299999 94.466 -1.6604
24.700001 94.467 -2.3476
25.000000 94.481 -2.9447
25.400000 94.502 -3.9162
25.799999 94.502 -5.0389
26.200001 94.472 -6.1674
26.500000 94.433 -6.9315
26.900000 94.374 -7.7903
27.200001 94.335 -8.3246
27.600000 94.299 -8.9543
28.000000 94.281 -9.5620
28.500000 94.276 -10.3696
29.000000 94.277 -11.2539
29.500000 94.275 -12.1904
30.000000 94.264 -13.1314
30.400000 94.251 -13.8608
30.700001 94.239 -14.3871
31.100000 94.221 -15.0617
31.500000 94.203 -15.7114
32.000000 94.180 -16.4967
32.500000 94.156 -17.2597
33.000000 94.131 -18.0098
33.500000 94.105 -18.7539
34.000000 94.078 -19.4957
34.500000 94.050 -20.2478
35.000000 94.020 -21.0322
35.500000 93.980 -21.8389
36.000000 93.927 -22.5958
36.500000 93.871 -23.2310
37.000000 93.829 -23.7723
37.500000 93.806 -24.3386
38.200001 93.776 -25.2893
38.700001 93.740 -25.9796
39.500000 93.682 -26.9054
40.000000 93.664 -27.4837
40.599998 93.641 -28.3176
41.200001 93.596 -29.2082
41.799999 93.535 -29.9973
42.500000 93.472 -30.8094
43.099998 93.427 -31.5383
43.700001 93.378 -32.3049
44.400002 93.316 -33.1436
45.000000 93.272 -33.7965
45.500000 93.248 -34.3508
46.200001 93.221 -35.2246
46.799999 93.186 -36.0159
47.500000 93.131 -36.7985
48.200001 93.094 -37.4214
48.700001 93.083 -37.9192
49.400002 93.049 -38.7775
50.000000 92.979 -39.4454
50.799999 92.874 -39.9078
51.500000 92.831 -40.1309
52.200001 92.828 -40.6044
53.000000 92.815 -41.5842
53.799999 92.754 -42.8436
54.500000 92.655 -43.9382
55.200001 92.536 -44.8248
56.000000 92.418 -45.6146
57.000000 92.297 -46.5338
58.000000 92.192 -47.1194
59.000000 92.164 -47.6145
60.000000 92.116 -48.4310
60.799999 92.040 -48.7503
61.500000 92.016 -48.8234
62.200001 92.034 -49.1664
63.000000 92.032 -50.0048
64.000000 91.964 -51.2058
65.000000 91.876 -52.3613
66.000000 91.785 -53.4669
67.000000 91.713 -54.4295
68.000000 91.670 -55.3737
69.000000 91.623 -56.2914
70.000000 91.565 -57.0055
71.000000 91.508 -57.5739
72.000000 91.445 -58.1121
73.000000 91.374 -58.6736
74.000000 91.291 -59.3020
75.000000 91.206 -59.9478
76.199997 91.117 -60.7631
77.500000 91.047 -61.6860
78.800003 90.990 -62.7296
80.000000 90.916 -63.6022
81.199997 90.839 -64.3133
82.500000 90.751 -65.0293
83.800003 90.663 -65.7318
85.000000 90.582 -66.4409
86.199997 90.500 -67.1537
87.500000 90.426 -67.9197
88.500000 90.371 -68.5538
90.000000 90.281 -69.4767
91.199997 90.204 -70.1394
92.500000 90.125 -70.7760
93.800003 90.052 -71.3875
95.000000 89.987 -71.9448
96.199997 89.925 -72.5170
97.500000 89.853 -73.2069
98.800003 89.773 -73.8640
100.000000 89.713 -74.4642
101.500000 89.641 -75.3235
103.000000 89.555 -76.1189
104.400002 89.473 -76.7525
106.000000 89.375 -77.4714
107.500000 89.279 -78.2188
109.000000 89.184 -79.0735
110.599998 89.089 -79.9700
112.000000 89.027 -80.5652
113.800003 88.991 -81.0361
115.000000 88.985 -81.3830
117.199997 88.893 -82.3289
118.000000 88.834 -82.6812
120.599998 88.634 -83.8652
122.000000 88.549 -84.5449
124.099998 88.449 -85.4836
125.000000 88.412 -85.8448
126.500000 88.349 -86.4304
128.000000 88.277 -87.0111
131.500000 88.106 -88.3705
132.000000 88.084 -88.5605
134.000000 88.002 -89.2944
136.000000 87.919 -90.0096
138.000000 87.831 -90.7235
140.000000 87.748 -91.4514
143.000000 87.634 -92.5477
145.000000 87.557 -93.2497
147.500000 87.454 -94.0847
150.000000 87.358 -94.9163
152.500000 87.269 -95.7815
155.000000 87.178 -96.6627
157.500000 87.079 -97.5220
160.000000 86.982 -98.2624
162.500000 86.897 -99.0118
165.000000 86.811 -99.7504
167.500000 86.728 -100.4299
170.000000 86.659 -101.1609
172.500000 86.577 -102.0312
175.000000 86.487 -102.8829
177.500000 86.395 -103.5675
180.000000 86.325 -104.1516
182.500000 86.254 -104.8492
185.000000 86.185 -105.6200
187.500000 86.108 -106.3704
190.000000 86.028 -106.9359
192.500000 85.961 -107.5168
195.000000 85.900 -108.2188
197.500000 85.843 -108.9384
200.000000 85.780 -109.5615
203.000000 85.708 -110.1752
206.000000 85.650 -110.9476
209.000000 85.556 -111.7626
212.000000 85.455 -112.3015
214.000000 85.419 -112.6171
218.000000 85.366 -113.9353
220.000000 85.286 -114.6838
224.000000 85.125 -115.4303
227.000000 85.062 -115.7502
230.000000 85.001 -116.5059
233.000000 84.922 -117.3104
236.000000 84.908 -117.7399
240.000000 84.911 -118.3065
243.000000 84.844 -118.8488
247.000000 84.785 -119.6670
250.000000 84.777 -120.5527
254.000000 84.692 -121.7402
258.000000 84.597 -122.3590
262.000000 84.545 -123.0565
265.000000 84.473 -123.5377
269.000000 84.378 -124.2310
272.000000 84.317 -124.9374
276.000000 84.268 -125.8455
280.000000 84.234 -126.5467
285.000000 84.143 -127.3543
290.000000 84.043 -128.3046
295.000000 83.938 -128.8981
300.000000 83.879 -129.7585
304.000000 83.840 -130.5732
307.000000 83.802 -131.1069
311.000000 83.753 -131.6994
315.000000 83.712 -132.2089
320.000000 83.656 -132.8597
325.000000 83.594 -133.5020
330.000000 83.559 -134.1726
335.000000 83.544 -134.8059
340.000000 83.520 -135.4705
345.000000 83.475 -135.8708
350.000000 83.433 -135.8644
355.000000 83.398 -136.7193
360.000000 83.335 -138.0618
365.000000 83.323 -138.8707
370.000000 83.319 -139.4312
375.000000 83.296 -140.2132
382.000000 83.279 -141.4429
387.000000 83.262 -142.1046
395.000000 83.224 -143.2150
400.000000 83.189 -143.9308
406.000000 83.142 -144.7364
412.000000 83.105 -145.4994
418.000000 83.076 -146.2228
425.000000 83.044 -147.0771
431.000000 83.015 -147.8032
437.000000 82.984 -148.5085
444.000000 82.953 -149.3030
450.000000 82.927 -149.9548
455.000000 82.902 -150.4587
462.000000 82.860 -151.0359
468.000000 82.820 -151.5732
475.000000 82.794 -152.4240
482.000000 82.774 -153.2695
487.000000 82.756 -153.7969
494.000000 82.733 -154.4684
500.000000 82.712 -155.0218
508.000000 82.687 -155.7012
515.000000 82.663 -156.2942
522.000000 82.637 -156.9542
530.000000 82.621 -157.6617
538.000000 82.610 -158.2851
545.000000 82.588 -158.8491
552.000000 82.569 -159.4147
560.000000 82.552 -160.0330
570.000000 82.531 -160.7865
580.000000 82.523 -161.4489
590.000000 82.501 -162.1750
600.000000 82.476 -162.9044
608.000000 82.473 -163.3958
615.000000 82.470 -163.8266
622.000000 82.467 -164.2900
630.000000 82.458 -164.8505
640.000000 82.451 -165.4490
650.000000 82.465 -165.9792
660.000000 82.486 -166.5927
670.000000 82.477 -167.2360
680.000000 82.451 -167.7329
690.000000 82.447 -168.1476
700.000000 82.453 -168.6591
710.000000 82.451 -169.2628
720.000000 82.438 -169.8174
730.000000 82.422 -170.2245
740.000000 82.414 -170.5616
750.000000 82.414 -170.8843
762.000000 82.420 -171.2471
775.000000 82.435 -171.6382
788.000000 82.458 -172.0178
800.000000 82.478 -172.3401
812.000000 82.498 -172.6841
825.000000 82.528 -173.0235
838.000000 82.562 -173.3276
850.000000 82.596 -173.6059
862.000000 82.637 -173.8842
875.000000 82.684 -174.1622
885.000000 82.720 -174.3573
900.000000 82.779 -174.6778
912.000000 82.831 -174.9401
925.000000 82.891 -175.2149
938.000000 82.955 -175.5153
950.000000 83.017 -175.8096
962.000000 83.078 -176.0916
975.000000 83.147 -176.3885
988.000000 83.220 -176.6821
1000.000000 83.292 -176.9492
1015.000000 83.381 -177.3192
1030.000000 83.468 -177.7542
1044.000000 83.552 -178.1593
1060.000000 83.647 -178.6317
1075.000000 83.735 -179.0966
1090.000000 83.822 -179.5752
1106.000000 83.913 179.8961
1120.000000 83.992 179.4193
1138.000000 84.089 178.8038
1150.000000 84.152 178.3918
1172.000000 84.262 177.6290
1180.000000 84.300 177.3501
1206.000000 84.418 176.4374
1220.000000 84.480 175.9485
1241.000000 84.568 175.2375
1250.000000 84.603 174.9408
1265.000000 84.658 174.4519
1280.000000 84.711 173.9637
1315.000000 84.826 172.8973
1320.000000 84.841 172.7568
1340.000000 84.900 172.1904
1360.000000 84.956 171.6398
1380.000000 85.009 171.1353
1400.000000 85.061 170.6691
1430.000000 85.137 170.0390
1450.000000 85.188 169.6573
1475.000000 85.253 169.2224
1500.000000 85.317 168.8292
1525.000000 85.383 168.4745
1550.000000 85.452 168.1630
1575.000000 85.524 167.8917
1600.000000 85.599 167.6461
1625.000000 85.680 167.4283
1650.000000 85.768 167.2200
1675.000000 85.858 167.0158
1700.000000 85.948 166.8118
1725.000000 86.043 166.5860
1750.000000 86.143 166.3429
1775.000000 86.246 166.0948
1800.000000 86.351 165.8338
1825.000000 86.458 165.5489
1850.000000 86.566 165.2328
1875.000000 86.675 164.8831
1900.000000 86.783 164.5051
1925.000000 86.889 164.0959
1950.000000 86.994 163.6470
1975.000000 87.095 163.1619
2000.000000 87.193 162.6506
2030.000000 87.304 162.0021
2060.000000 87.407 161.3096
2090.000000 87.502 160.5776
2120.000000 87.588 159.8203
2140.000000 87.639 159.2996
2180.000000 87.729 158.2332
2200.000000 87.767 157.7007
2240.000000 87.828 156.6339
2270.000000 87.863 155.8326
2300.000000 87.886 155.0381
2330.000000 87.899 154.2609
2360.000000 87.902 153.5107
2400.000000 87.892 152.5537
2430.000000 87.875 151.8719
2470.000000 87.839 151.0199
2500.000000 87.803 150.4259
2540.000000 87.746 149.7017
2580.000000 87.680 149.0637
2620.000000 87.606 148.5096
2650.000000 87.545 148.1457
2690.000000 87.459 147.7298
2720.000000 87.394 147.4674
2760.000000 87.305 147.1860
2800.000000 87.214 146.9825
2850.000000 87.100 146.8273
2900.000000 86.988 146.7747
2950.000000 86.878 146.8102
3000.000000 86.772 146.9391
3040.000000 86.693 147.1082
3070.000000 86.635 147.2695
3110.000000 86.563 147.5278
3150.000000 86.495 147.8271
3200.000000 86.420 148.2545
3250.000000 86.357 148.7479
3300.000000 86.305 149.3077
3350.000000 86.267 149.9210
3400.000000 86.247 150.5700
3450.000000 86.244 151.2453
3500.000000 86.260 151.9282
3550.000000 86.298 152.5922
3600.000000 86.358 153.2126
3650.000000 86.442 153.7541
3700.000000 86.544 154.1794
3750.000000 86.661 154.4507
3820.000000 86.836 154.5446
3870.000000 86.960 154.4031
3950.000000 87.135 153.8688
4000.000000 87.223 153.4149
4060.000000 87.305 152.8311
4120.000000 87.365 152.2661
4180.000000 87.409 151.7663
4250.000000 87.452 151.2979
4310.000000 87.488 150.9904
4370.000000 87.528 150.7538
4440.000000 87.587 150.5530
4500.000000 87.650 150.4223
4550.000000 87.712 150.3210
4620.000000 87.817 150.1698
4680.000000 87.923 150.0100
4750.000000 88.069 149.7493
4820.000000 88.239 149.3497
4870.000000 88.376 148.9360
4940.000000 88.585 148.0917
5000.000000 88.774 147.0309
5080.000000 89.012 144.9742
5150.000000 89.167 142.4700
5220.000000 89.215 139.3494
5300.000000 89.070 135.4148
5380.000000 88.678 131.8741
5450.000000 88.162 129.7694
5520.000000 87.557 128.9337
5600.000000 86.856 129.5168
5700.000000 86.093 132.0085
5800.000000 85.524 135.6238
5900.000000 85.141 139.6587
6000.000000 84.907 143.6882
6080.000000 84.798 146.7632
6150.000000 84.743 149.2990
6220.000000 84.714 151.6814
6300.000000 84.703 154.2300
6400.000000 84.709 157.1788
6500.000000 84.718 159.9078
6600.000000 84.712 162.5031
6700.000000 84.681 165.1583
6800.000000 84.641 168.1331
6900.000000 84.642 171.5481
7000.000000 84.732 175.2000
7100.000000 84.924 178.8323
7200.000000 85.226 -177.7867
7300.000000 85.621 -175.0092
7400.000000 86.061 -172.9999
7500.000000 86.510 -171.7393
7620.000000 87.026 -171.1592
7750.000000 87.514 -171.5515
7880.000000 87.897 -172.8052
8000.000000 88.130 -174.5302
8120.000000 88.225 -176.5408
8250.000000 88.166 -178.6561
8380.000000 87.959 179.6998
8500.000000 87.671 178.8728
8620.000000 87.336 178.8472
8750.000000 86.970 179.7270
8850.000000 86.715 -179.0389
9000.000000 86.418 -176.5212
9120.000000 86.265 -174.1896
9250.000000 86.173 -171.5909
9380.000000 86.130 -168.8997
9500.000000 86.154 -166.2311
9620.000000 86.274 -163.5814
9750.000000 86.516 -161.0585
9880.000000 86.860 -159.2374
10000.000000 87.234 -158.5157
10150.000000 87.693 -159.3455
10300.000000 87.994 -162.2952
10440.000000 87.988 -166.5254
10600.000000 87.546 -171.7872
10750.000000 86.731 -175.7667
10900.000000 85.628 -177.9788
11060.000000 84.271 -178.1176
11200.000000 83.029 -176.4904
11380.000000 81.468 -172.4418
11500.000000 80.488 -168.8068
11720.000000 78.856 -160.8370
11800.000000 78.320 -157.6550
12060.000000 76.794 -146.7593
12200.000000 76.115 -140.7355
12410.000000 75.303 -131.9113
12500.000000 75.036 -128.4195
12650.000000 74.683 -123.4896
12800.000000 74.353 -119.9368
13150.000000 73.231 -114.5715
13200.000000 73.033 -113.8892
13400.000000 72.203 -111.1935
13600.000000 71.367 -108.6216
13800.000000 70.608 -106.3926
14000.000000 69.981 -105.1766
14300.000000 69.101 -105.8929
14500.000000 68.483 -106.8450
14750.000000 67.883 -107.3630
15000.000000 67.754 -107.0408
15250.000000 68.339 -107.0218
15500.000000 69.507 -109.3743
15750.000000 70.838 -114.5277
16000.000000 72.169 -120.8878
16250.000000 73.719 -126.8616
16500.000000 76.065 -132.6287
16750.000000 79.245 -142.6313
17000.000000 82.578 -161.7010
17250.000000 85.462 167.9878
17500.000000 87.288 125.4859
17750.000000 87.561 73.9848
18000.000000 86.194 20.6154
18250.000000 83.459 -29.7878
18500.000000 79.713 -76.8257
18750.000000 75.233 -123.1724
19000.000000 70.200 -176.0364
19250.000000 64.609 111.1157
19500.000000 58.633 9.8418
19750.000000 54.971 -93.5492
