* Measurement data measured by REW V5.20.9
* Source: Frequency Response Averaged data
* Format: Averaged data produced from the rms magnitudes of Chu Jul 13, Chu Jul 13, Chu Jul 13
* Dated: 13/07/2022 8:05:50 PM
* REW Settings:
*  C-weighting compensation: Off
*  Target level: 75.0 dB
* Note: ; Averaged data produced from the rms magnitudes of Chu Jul 13, Chu Jul 13, Chu Jul 13
* Measurement: Ola L
* Smoothing: 1/24 octave
* Frequency Step: 1/48 octave
* Start Frequency: 2.200 Hz
*
* Freq(Hz) SPL(dB)
2.200000 55.363
2.240000 55.566
2.270000 55.719
2.300000 55.872
2.330000 56.024
2.360000 56.177
2.400000 56.380
2.430000 56.533
2.470000 56.737
2.500000 56.889
2.540000 57.093
2.580000 57.311
2.620000 57.562
2.650000 57.760
2.690000 58.032
2.720000 58.240
2.760000 58.521
2.800000 58.802
2.850000 59.148
2.900000 59.480
2.950000 59.794
3.000000 60.093
3.040000 60.325
3.070000 60.496
3.110000 60.720
3.150000 60.942
3.200000 61.219
3.250000 61.496
3.300000 61.777
3.350000 62.062
3.400000 62.349
3.450000 62.636
3.500000 62.921
3.550000 63.204
3.600000 63.481
3.650000 63.751
3.700000 64.015
3.750000 64.274
3.820000 64.630
3.870000 64.879
3.950000 65.263
4.000000 65.495
4.060000 65.764
4.120000 66.024
4.180000 66.275
4.250000 66.556
4.310000 66.786
4.370000 67.007
4.440000 67.252
4.500000 67.450
4.550000 67.608
4.620000 67.818
4.680000 67.989
4.750000 68.178
4.820000 68.354
4.870000 68.472
4.940000 68.627
5.000000 68.753
5.080000 68.911
5.150000 69.044
5.220000 69.167
5.300000 69.297
5.380000 69.420
5.450000 69.526
5.520000 69.631
5.600000 69.747
5.700000 69.886
5.800000 70.026
5.900000 70.173
6.000000 70.324
6.080000 70.447
6.150000 70.558
6.220000 70.672
6.300000 70.808
6.400000 70.985
6.500000 71.166
6.600000 71.351
6.700000 71.540
6.800000 71.734
6.900000 71.928
7.000000 72.120
7.100000 72.312
7.200000 72.503
7.300000 72.690
7.400000 72.871
7.500000 73.050
7.620000 73.257
7.750000 73.471
7.880000 73.676
8.000000 73.854
8.120000 74.021
8.250000 74.191
8.380000 74.346
8.500000 74.476
8.620000 74.592
8.750000 74.705
8.850000 74.781
9.000000 74.878
9.120000 74.945
9.250000 75.009
9.380000 75.063
9.500000 75.112
9.620000 75.165
9.750000 75.223
9.880000 75.295
10.000000 75.377
10.150000 75.498
10.300000 75.646
10.440000 75.813
10.600000 76.024
10.750000 76.240
10.900000 76.472
11.060000 76.715
11.200000 76.927
11.380000 77.187
11.500000 77.349
11.720000 77.625
11.800000 77.719
12.060000 78.002
12.200000 78.151
12.410000 78.370
12.500000 78.468
12.650000 78.635
12.800000 78.806
13.150000 79.216
13.200000 79.271
13.400000 79.489
13.600000 79.679
13.800000 79.834
14.000000 79.947
14.300000 80.041
14.500000 80.059
14.750000 80.059
15.000000 80.049
15.250000 80.058
15.500000 80.095
15.750000 80.160
16.000000 80.244
16.250000 80.335
16.500000 80.426
16.750000 80.516
17.000000 80.610
17.250000 80.712
17.500000 80.823
17.750000 80.930
18.000000 81.022
18.250000 81.085
18.500000 81.105
18.750000 81.089
19.000000 81.043
19.250000 80.998
19.500000 80.977
19.750000 81.001
20.000000 81.082
20.299999 81.234
20.600000 81.413
20.900000 81.580
21.200001 81.708
21.400000 81.771
21.799999 81.860
22.000000 81.900
22.400000 82.001
22.700001 82.102
23.000000 82.219
23.299999 82.335
23.600000 82.439
24.000000 82.548
24.299999 82.612
24.700001 82.682
25.000000 82.731
25.400000 82.800
25.799999 82.873
26.200001 82.950
26.500000 83.012
26.900000 83.104
27.200001 83.177
27.600000 83.275
28.000000 83.361
28.500000 83.440
29.000000 83.504
29.500000 83.591
30.000000 83.721
30.400000 83.840
30.700001 83.920
31.100000 84.000
31.500000 84.051
32.000000 84.109
32.500000 84.198
33.000000 84.304
33.500000 84.372
34.000000 84.376
34.500000 84.355
35.000000 84.375
35.500000 84.462
36.000000 84.574
36.500000 84.658
37.000000 84.696
37.500000 84.714
38.200001 84.769
38.700001 84.837
39.500000 84.936
40.000000 84.972
40.599998 84.999
41.200001 85.033
41.799999 85.085
42.500000 85.167
43.099998 85.235
43.700001 85.289
44.400002 85.352
45.000000 85.420
45.500000 85.473
46.200001 85.499
46.799999 85.480
47.500000 85.480
48.200001 85.549
48.700001 85.627
49.400002 85.746
50.000000 85.826
50.799999 85.851
51.500000 85.807
52.200001 85.780
53.000000 85.825
53.799999 85.896
54.500000 85.916
55.200001 85.896
56.000000 85.893
57.000000 85.973
58.000000 86.051
59.000000 86.101
60.000000 86.131
60.799999 86.131
61.500000 86.111
62.200001 86.083
63.000000 86.085
64.000000 86.147
65.000000 86.183
66.000000 86.196
67.000000 86.241
68.000000 86.291
69.000000 86.302
70.000000 86.303
71.000000 86.323
72.000000 86.347
73.000000 86.377
74.000000 86.404
75.000000 86.428
76.199997 86.445
77.500000 86.449
78.800003 86.483
80.000000 86.510
81.199997 86.536
82.500000 86.519
83.800003 86.496
85.000000 86.558
86.199997 86.604
87.500000 86.568
88.500000 86.557
90.000000 86.580
91.199997 86.582
92.500000 86.566
93.800003 86.540
95.000000 86.520
96.199997 86.535
97.500000 86.606
98.800003 86.682
100.000000 86.668
101.500000 86.586
103.000000 86.559
104.400002 86.549
106.000000 86.510
107.500000 86.466
109.000000 86.434
110.599998 86.416
112.000000 86.384
113.800003 86.322
115.000000 86.278
117.199997 86.254
118.000000 86.268
120.599998 86.323
122.000000 86.334
124.099998 86.295
125.000000 86.265
126.500000 86.210
128.000000 86.141
131.500000 85.864
132.000000 85.830
134.000000 85.676
136.000000 85.515
138.000000 85.504
140.000000 85.652
143.000000 86.023
145.000000 86.183
147.500000 86.236
150.000000 86.217
152.500000 86.281
155.000000 86.406
157.500000 86.516
160.000000 86.597
162.500000 86.649
165.000000 86.671
167.500000 86.677
170.000000 86.679
172.500000 86.678
175.000000 86.669
177.500000 86.656
180.000000 86.641
182.500000 86.621
185.000000 86.601
187.500000 86.585
190.000000 86.568
192.500000 86.541
195.000000 86.514
197.500000 86.488
200.000000 86.458
203.000000 86.425
206.000000 86.397
209.000000 86.379
212.000000 86.368
214.000000 86.357
218.000000 86.340
220.000000 86.342
224.000000 86.355
227.000000 86.360
230.000000 86.362
233.000000 86.364
236.000000 86.367
240.000000 86.375
243.000000 86.379
247.000000 86.380
250.000000 86.373
254.000000 86.355
258.000000 86.336
262.000000 86.316
265.000000 86.305
269.000000 86.289
272.000000 86.276
276.000000 86.260
280.000000 86.238
285.000000 86.212
290.000000 86.188
295.000000 86.153
300.000000 86.115
304.000000 86.092
307.000000 86.078
311.000000 86.057
315.000000 86.035
320.000000 86.004
325.000000 85.975
330.000000 85.951
335.000000 85.930
340.000000 85.912
345.000000 85.894
350.000000 85.873
355.000000 85.845
360.000000 85.817
365.000000 85.791
370.000000 85.762
375.000000 85.733
382.000000 85.696
387.000000 85.670
395.000000 85.628
400.000000 85.602
406.000000 85.572
412.000000 85.543
418.000000 85.512
425.000000 85.474
431.000000 85.444
437.000000 85.419
444.000000 85.387
450.000000 85.357
455.000000 85.335
462.000000 85.307
468.000000 85.282
475.000000 85.253
482.000000 85.225
487.000000 85.206
494.000000 85.180
500.000000 85.157
508.000000 85.130
515.000000 85.107
522.000000 85.084
530.000000 85.058
538.000000 85.034
545.000000 85.015
552.000000 84.997
560.000000 84.976
570.000000 84.954
580.000000 84.935
590.000000 84.920
600.000000 84.908
608.000000 84.902
615.000000 84.899
622.000000 84.900
630.000000 84.905
640.000000 84.921
650.000000 84.955
660.000000 85.027
670.000000 85.144
680.000000 85.305
690.000000 85.439
700.000000 85.395
710.000000 85.150
720.000000 84.878
730.000000 84.694
740.000000 84.561
750.000000 84.392
762.000000 84.086
775.000000 83.944
788.000000 84.247
800.000000 84.547
812.000000 84.727
825.000000 84.849
838.000000 84.942
850.000000 85.020
862.000000 85.098
875.000000 85.185
885.000000 85.254
900.000000 85.363
912.000000 85.454
925.000000 85.558
938.000000 85.665
950.000000 85.768
962.000000 85.873
975.000000 85.988
988.000000 86.105
1000.000000 86.215
1015.000000 86.353
1030.000000 86.492
1044.000000 86.620
1060.000000 86.767
1075.000000 86.904
1090.000000 87.036
1106.000000 87.176
1120.000000 87.296
1138.000000 87.444
1150.000000 87.540
1172.000000 87.710
1180.000000 87.770
1206.000000 87.958
1220.000000 88.055
1241.000000 88.196
1250.000000 88.255
1265.000000 88.350
1280.000000 88.443
1315.000000 88.650
1320.000000 88.679
1340.000000 88.793
1360.000000 88.906
1380.000000 89.017
1400.000000 89.128
1430.000000 89.292
1450.000000 89.401
1475.000000 89.538
1500.000000 89.679
1525.000000 89.821
1550.000000 89.966
1575.000000 90.116
1600.000000 90.270
1625.000000 90.427
1650.000000 90.587
1675.000000 90.751
1700.000000 90.919
1725.000000 91.091
1750.000000 91.263
1775.000000 91.435
1800.000000 91.608
1825.000000 91.779
1850.000000 91.945
1875.000000 92.105
1900.000000 92.258
1925.000000 92.401
1950.000000 92.533
1975.000000 92.651
2000.000000 92.755
2030.000000 92.860
2060.000000 92.945
2090.000000 93.008
2120.000000 93.052
2140.000000 93.072
2180.000000 93.090
2200.000000 93.090
2240.000000 93.074
2270.000000 93.048
2300.000000 93.012
2330.000000 92.964
2360.000000 92.906
2400.000000 92.817
2430.000000 92.743
2470.000000 92.638
2500.000000 92.553
2540.000000 92.435
2580.000000 92.311
2620.000000 92.183
2650.000000 92.084
2690.000000 91.948
2720.000000 91.845
2760.000000 91.708
2800.000000 91.573
2850.000000 91.413
2900.000000 91.266
2950.000000 91.135
3000.000000 91.010
3040.000000 90.907
3070.000000 90.826
3110.000000 90.713
3150.000000 90.595
3200.000000 90.444
3250.000000 90.292
3300.000000 90.144
3350.000000 90.001
3400.000000 89.866
3450.000000 89.740
3500.000000 89.623
3550.000000 89.515
3600.000000 89.413
3650.000000 89.318
3700.000000 89.228
3750.000000 89.143
3820.000000 89.032
3870.000000 88.959
3950.000000 88.853
4000.000000 88.795
4060.000000 88.733
4120.000000 88.681
4180.000000 88.639
4250.000000 88.601
4310.000000 88.581
4370.000000 88.571
4440.000000 88.572
4500.000000 88.584
4550.000000 88.603
4620.000000 88.639
4680.000000 88.677
4750.000000 88.728
4820.000000 88.787
4870.000000 88.834
4940.000000 88.907
5000.000000 88.974
5080.000000 89.072
5150.000000 89.167
5220.000000 89.268
5300.000000 89.393
5380.000000 89.525
5450.000000 89.645
5520.000000 89.765
5600.000000 89.902
5700.000000 90.066
5800.000000 90.207
5900.000000 90.318
6000.000000 90.530
6080.000000 90.784
6150.000000 90.931
6220.000000 91.017
6300.000000 91.093
6400.000000 91.176
6500.000000 91.247
6600.000000 91.304
6700.000000 91.346
6800.000000 91.374
6900.000000 91.389
7000.000000 91.390
7100.000000 91.376
7200.000000 91.349
7300.000000 91.298
7400.000000 91.220
7500.000000 91.113
7620.000000 90.948
7750.000000 90.726
7880.000000 90.456
8000.000000 90.143
8120.000000 89.719
8250.000000 89.061
8380.000000 88.154
8500.000000 87.149
8620.000000 86.123
8750.000000 85.176
8850.000000 84.660
9000.000000 84.261
9120.000000 84.167
9250.000000 84.120
9380.000000 83.978
9500.000000 83.690
9620.000000 83.240
9750.000000 82.605
9880.000000 81.874
10000.000000 81.163
10150.000000 80.303
10300.000000 79.563
10440.000000 78.998
10600.000000 78.407
10750.000000 77.851
10900.000000 77.313
11060.000000 76.801
11200.000000 76.419
11380.000000 76.014
11500.000000 75.788
11720.000000 75.458
11800.000000 75.363
12060.000000 75.159
12200.000000 75.115
12410.000000 75.131
12500.000000 75.169
12650.000000 75.276
12800.000000 75.445
13150.000000 76.095
13200.000000 76.223
13400.000000 76.839
13600.000000 77.642
13800.000000 78.678
14000.000000 80.034
14300.000000 82.919
14500.000000 85.291
14750.000000 87.601
15000.000000 87.620
15250.000000 85.155
15500.000000 81.626
15750.000000 78.405
16000.000000 75.871
16250.000000 73.867
16500.000000 72.208
16750.000000 70.791
17000.000000 69.586
17250.000000 68.672
17500.000000 68.025
17750.000000 67.481
18000.000000 67.421
18250.000000 67.996
18500.000000 68.577
18750.000000 68.710
19000.000000 68.372
19250.000000 67.698
19500.000000 66.759
19750.000000 65.634
