* Measurement data measured by REW V5.20.9
* Source: Headset (USB-C to 3.5mm Headphone Jack Adapter), MICROPHONE (Master Volume), L, volume: 0.800. Timing signal peak level -23.9 dBFS, measurement signal peak level -23.8 dBFS
* Format: 256k Log Swept Sine, 1 sweep at -12.0 dBFS using an acoustic timing reference
* Dated: 22/11/2022 9:56:53 PM
* REW Settings:
*  C-weighting compensation: Off
*  Target level: 75.0 dB
* Note: ; Delay -0.0384 ms (-13 mm, -0.52 in) using estimated IR delay relative to Acoustic reference on SPEAKER L with no timing offset
* Measurement: Serratus Fiio Bal L
* Smoothing: 1/24 octave
* Frequency Step: 1/48 octave
* Start Frequency: 1.000 Hz
*
* Freq(Hz) SPL(dB) Phase(degrees)
1.000000 53.762 -147.2745
1.015000 53.865 -148.4468
1.030000 53.963 -149.5880
1.044000 54.052 -150.6214
1.060000 54.148 -151.7609
1.075000 54.235 -152.7847
1.090000 54.317 -153.7612
1.106000 54.399 -154.7479
1.120000 54.467 -155.5721
1.138000 54.548 -156.5837
1.150000 54.599 -157.2301
1.172000 54.684 -158.3616
1.180000 54.713 -158.7571
1.206000 54.798 -159.9904
1.220000 54.840 -160.6246
1.241000 54.896 -161.5424
1.250000 54.919 -161.9250
1.265000 54.953 -162.5501
1.280000 54.985 -163.1620
1.315000 55.048 -164.5521
1.320000 55.056 -164.7478
1.340000 55.086 -165.5269
1.360000 55.112 -166.3049
1.380000 55.135 -167.0876
1.400000 55.156 -167.8813
1.430000 55.182 -169.1052
1.450000 55.198 -169.9522
1.475000 55.216 -171.0575
1.500000 55.229 -172.2261
1.525000 55.237 -173.4468
1.550000 55.239 -174.7043
1.575000 55.236 -175.9838
1.600000 55.227 -177.2698
1.625000 55.213 -178.5475
1.650000 55.193 -179.8016
1.675000 55.168 178.9830
1.700000 55.138 177.8214
1.725000 55.103 176.7286
1.750000 55.062 175.7200
1.775000 55.017 174.8105
1.800000 54.966 174.0153
1.825000 54.910 173.3494
1.850000 54.845 172.8041
1.875000 54.765 172.3301
1.900000 54.672 171.9265
1.925000 54.569 171.5945
1.950000 54.457 171.3354
1.975000 54.340 171.1505
2.000000 54.219 171.0411
2.030000 54.075 171.0113
2.060000 53.933 171.0942
2.090000 53.800 171.2921
2.120000 53.679 171.6071
2.140000 53.608 171.8834
2.180000 53.492 172.5979
2.200000 53.451 173.0379
2.240000 53.374 174.2036
2.270000 53.316 175.3276
2.300000 53.262 176.6262
2.330000 53.217 178.0638
2.360000 53.183 179.6049
2.400000 53.161 -178.2408
2.430000 53.168 -176.5965
2.470000 53.215 -174.4337
2.500000 53.283 -172.8799
2.540000 53.424 -170.9667
2.580000 53.633 -169.2766
2.620000 53.919 -167.5740
2.650000 54.179 -166.2735
2.690000 54.575 -164.5484
2.720000 54.901 -163.2888
2.760000 55.363 -161.6955
2.800000 55.843 -160.2467
2.850000 56.449 -158.7156
2.900000 57.034 -157.5874
2.950000 57.580 -156.9517
3.000000 58.132 -156.7745
3.040000 58.583 -156.9134
3.070000 58.924 -157.1599
3.110000 59.379 -157.6520
3.150000 59.828 -158.3010
3.200000 60.375 -159.2832
3.250000 60.899 -160.3959
3.300000 61.389 -161.5760
3.350000 61.850 -162.9275
3.400000 62.291 -164.5161
3.450000 62.712 -166.2880
3.500000 63.115 -168.1890
3.550000 63.499 -170.1651
3.600000 63.866 -172.1624
3.650000 64.216 -174.1268
3.700000 64.549 -176.0517
3.750000 64.861 -178.0195
3.820000 65.269 179.1637
3.870000 65.539 177.1198
3.950000 65.941 173.8195
4.000000 66.174 171.7523
4.060000 66.437 169.2702
4.120000 66.678 166.7430
4.180000 66.897 164.1882
4.250000 67.128 161.2088
4.310000 67.307 158.6873
4.370000 67.469 156.2245
4.440000 67.639 153.4385
4.500000 67.764 151.0866
4.550000 67.854 149.1559
4.620000 67.963 146.5090
4.680000 68.040 144.3030
4.750000 68.116 141.8164
4.820000 68.173 139.4147
4.870000 68.201 137.7369
4.940000 68.224 135.4579
5.000000 68.232 133.5856
5.080000 68.230 131.2327
5.150000 68.220 129.3309
5.220000 68.195 127.5588
5.300000 68.150 125.6849
5.380000 68.097 123.9775
5.450000 68.050 122.6242
5.520000 68.007 121.4083
5.600000 67.953 120.2094
5.700000 67.883 118.9569
5.800000 67.827 117.9113
5.900000 67.798 117.0200
6.000000 67.789 116.3672
6.080000 67.797 115.9637
6.150000 67.815 115.6423
6.220000 67.846 115.3048
6.300000 67.899 114.9196
6.400000 67.992 114.4940
6.500000 68.102 114.0477
6.600000 68.217 113.4919
6.700000 68.343 112.8176
6.800000 68.480 112.0602
6.900000 68.614 111.2216
7.000000 68.732 110.2982
7.100000 68.843 109.2639
7.200000 68.943 108.1599
7.300000 69.025 107.0406
7.400000 69.084 105.9172
7.500000 69.123 104.7505
7.620000 69.145 103.3900
7.750000 69.132 102.0710
7.880000 69.079 100.8453
8.000000 69.004 99.8965
8.120000 68.907 99.2209
8.250000 68.769 98.7337
8.380000 68.620 98.5883
8.500000 68.486 98.8430
8.620000 68.343 99.4466
8.750000 68.214 100.4414
8.850000 68.152 101.4459
9.000000 68.098 103.4127
9.120000 68.113 105.1378
9.250000 68.210 107.0233
9.380000 68.382 109.0181
9.500000 68.589 110.6873
9.620000 68.843 112.0586
9.750000 69.174 113.3128
9.880000 69.517 114.2192
10.000000 69.834 114.6719
10.150000 70.238 114.8044
10.300000 70.607 114.6017
10.440000 70.919 114.0580
10.600000 71.236 113.2234
10.750000 71.485 112.3727
10.900000 71.693 111.4388
11.060000 71.889 110.5721
11.200000 72.031 109.9052
11.380000 72.212 109.1992
11.500000 72.337 108.8679
11.720000 72.587 108.3606
11.800000 72.696 108.1743
12.060000 73.095 107.4969
12.200000 73.339 106.8707
12.410000 73.730 105.5829
12.500000 73.891 104.8367
12.650000 74.161 103.3366
12.800000 74.406 101.5705
13.150000 74.827 96.4862
13.200000 74.865 95.7109
13.400000 74.960 92.4377
13.600000 74.958 89.2703
13.800000 74.852 86.3006
14.000000 74.663 83.9248
14.300000 74.254 81.7225
14.500000 73.947 81.5384
14.750000 73.657 82.6641
15.000000 73.541 85.1279
15.250000 73.732 88.1125
15.500000 74.178 90.6791
15.750000 74.823 92.3196
16.000000 75.525 92.5259
16.250000 76.182 91.5489
16.500000 76.747 89.6244
16.750000 77.181 87.1708
17.000000 77.485 84.6681
17.250000 77.671 82.3687
17.500000 77.760 80.5631
17.750000 77.801 79.4325
18.000000 77.827 78.9500
18.250000 77.876 79.0770
18.500000 77.980 79.5328
18.750000 78.135 80.1176
19.000000 78.335 80.6448
19.250000 78.548 80.9630
19.500000 78.753 81.1087
19.750000 78.935 81.1119
20.000000 79.085 81.0981
20.299999 79.233 81.1603
20.600000 79.356 81.3732
20.900000 79.469 81.7434
21.200001 79.585 82.2196
21.400000 79.666 82.5570
21.799999 79.837 83.2159
22.000000 79.927 83.5024
22.400000 80.109 83.9253
22.700001 80.242 84.0731
23.000000 80.360 84.0704
23.299999 80.459 83.9710
23.600000 80.539 83.8505
24.000000 80.636 83.7525
24.299999 80.724 83.7135
24.700001 80.880 83.5352
25.000000 81.022 83.1286
25.400000 81.210 82.0742
25.799999 81.346 80.5361
26.200001 81.404 78.8778
26.500000 81.410 77.7967
26.900000 81.407 76.7264
27.200001 81.426 76.1661
27.600000 81.504 75.5615
28.000000 81.636 74.8903
28.500000 81.841 73.7841
29.000000 82.050 72.3878
29.500000 82.230 70.7726
30.000000 82.339 69.1521
30.400000 82.367 68.1630
30.700001 82.368 67.7780
31.100000 82.390 67.8245
31.500000 82.491 68.3268
32.000000 82.760 68.9346
32.500000 83.119 68.7903
33.000000 83.441 67.7144
33.500000 83.650 66.1202
34.000000 83.744 64.5774
34.500000 83.768 63.4317
35.000000 83.774 62.7086
35.500000 83.799 62.2107
36.000000 83.838 61.7161
36.500000 83.871 61.1842
37.000000 83.891 60.7796
37.500000 83.931 60.6291
38.200001 84.093 60.4512
38.700001 84.261 59.8143
39.500000 84.415 57.8263
40.000000 84.389 56.7591
40.599998 84.318 56.3913
41.200001 84.350 56.7293
41.799999 84.498 56.8085
42.500000 84.656 56.0009
43.099998 84.683 55.1463
43.700001 84.665 54.7762
44.400002 84.708 54.7504
45.000000 84.813 54.4349
45.500000 84.896 53.7698
46.200001 84.947 52.6133
46.799999 84.962 51.9930
47.500000 85.101 51.7355
48.200001 85.417 50.7311
48.700001 85.625 48.9678
49.400002 85.679 45.8525
50.000000 85.513 44.2985
50.799999 85.358 44.8326
51.500000 85.517 45.9025
52.200001 85.774 45.9366
53.000000 85.955 45.2169
53.799999 86.027 44.6945
54.500000 86.062 44.5157
55.200001 86.108 44.4507
56.000000 86.189 44.1279
57.000000 86.248 43.1028
58.000000 86.260 42.1753
59.000000 86.342 41.1858
60.000000 86.406 39.7849
60.799999 86.430 38.9244
61.500000 86.470 38.3793
62.200001 86.520 37.9006
63.000000 86.591 37.4955
64.000000 86.731 36.8990
65.000000 86.844 35.7409
66.000000 86.872 34.5753
67.000000 86.893 33.7123
68.000000 86.935 32.8368
69.000000 86.966 31.9023
70.000000 86.976 31.1495
71.000000 86.993 30.6364
72.000000 87.029 30.2033
73.000000 87.074 29.6491
74.000000 87.092 28.8930
75.000000 87.074 28.1884
76.199997 87.066 27.5039
77.500000 87.098 26.6910
78.800003 87.165 25.7235
80.000000 87.214 24.6699
81.199997 87.233 23.7768
82.500000 87.253 22.9874
83.800003 87.259 22.2406
85.000000 87.269 21.6368
86.199997 87.297 20.9005
87.500000 87.315 19.9776
88.500000 87.324 19.3326
90.000000 87.344 18.5544
91.199997 87.377 18.0152
92.500000 87.408 17.3140
93.800003 87.401 16.5466
95.000000 87.372 15.9373
96.199997 87.353 15.3601
97.500000 87.345 14.6521
98.800003 87.342 13.8824
100.000000 87.338 13.1852
101.500000 87.330 12.4352
103.000000 87.323 11.7838
104.400002 87.309 11.1822
106.000000 87.278 10.5196
107.500000 87.252 9.9110
109.000000 87.226 9.3181
110.599998 87.214 8.7340
112.000000 87.205 8.1837
113.800003 87.179 7.5580
115.000000 87.162 7.1605
117.199997 87.119 6.3552
118.000000 87.095 6.0382
120.599998 87.004 5.2020
122.000000 86.981 4.8142
124.099998 86.955 4.0598
125.000000 86.944 3.7490
126.500000 86.932 3.2173
128.000000 86.917 2.6576
131.500000 86.863 1.6644
132.000000 86.859 1.5530
134.000000 86.844 1.0969
136.000000 86.818 0.5701
138.000000 86.778 0.0707
140.000000 86.734 -0.3562
143.000000 86.670 -1.0925
145.000000 86.592 -1.7841
147.500000 86.478 -2.8414
150.000000 86.357 -3.7082
152.500000 86.339 -3.8359
155.000000 86.334 -4.0771
157.500000 86.255 -4.2466
160.000000 86.169 -4.5142
162.500000 86.087 -4.9552
165.000000 86.003 -5.2781
167.500000 85.915 -5.5854
170.000000 85.815 -5.8856
172.500000 85.724 -6.1992
175.000000 85.645 -6.4819
177.500000 85.573 -6.7623
180.000000 85.497 -7.0428
182.500000 85.438 -7.3372
185.000000 85.387 -7.6436
187.500000 85.332 -7.8124
190.000000 85.268 -7.9906
192.500000 85.199 -8.2595
195.000000 85.143 -8.4582
197.500000 85.110 -8.4768
200.000000 85.075 -8.5518
203.000000 84.995 -8.8814
206.000000 84.919 -9.1407
209.000000 84.872 -9.3181
212.000000 84.813 -9.5936
214.000000 84.762 -9.7770
218.000000 84.674 -9.8784
220.000000 84.638 -9.9491
224.000000 84.549 -10.3390
227.000000 84.489 -10.5412
230.000000 84.437 -10.4480
233.000000 84.376 -10.2322
236.000000 84.313 -10.1105
240.000000 84.248 -10.1362
243.000000 84.213 -10.3213
247.000000 84.200 -10.9017
250.000000 84.177 -11.2426
254.000000 84.067 -11.2950
258.000000 83.959 -11.5002
262.000000 83.873 -11.8222
265.000000 83.772 -12.0230
269.000000 83.606 -12.2626
272.000000 83.487 -12.2272
276.000000 83.336 -11.8342
280.000000 83.191 -11.2992
285.000000 83.051 -10.5604
290.000000 82.939 -9.9148
295.000000 82.835 -9.3066
300.000000 82.739 -8.6263
304.000000 82.684 -7.9050
307.000000 82.665 -7.2872
311.000000 82.683 -6.5454
315.000000 82.733 -6.1589
320.000000 82.773 -6.1678
325.000000 82.769 -6.3945
330.000000 82.738 -6.6494
335.000000 82.670 -6.7408
340.000000 82.597 -6.7145
345.000000 82.547 -6.6457
350.000000 82.498 -6.5006
355.000000 82.436 -6.3369
360.000000 82.379 -6.1993
365.000000 82.331 -6.0721
370.000000 82.289 -5.9337
375.000000 82.252 -5.7531
382.000000 82.193 -5.4996
387.000000 82.155 -5.3689
395.000000 82.092 -5.0829
400.000000 82.048 -4.8384
406.000000 81.995 -4.4183
412.000000 81.940 -3.9823
418.000000 81.888 -3.6190
425.000000 81.826 -3.2308
431.000000 81.769 -2.8840
437.000000 81.712 -2.5493
444.000000 81.644 -2.0737
450.000000 81.597 -1.5790
455.000000 81.580 -1.3290
462.000000 81.556 -1.0671
468.000000 81.522 -0.7872
475.000000 81.483 -0.3983
482.000000 81.445 0.0016
487.000000 81.419 0.2751
494.000000 81.384 0.6719
500.000000 81.356 1.0283
508.000000 81.318 1.5115
515.000000 81.287 1.9164
522.000000 81.258 2.2876
530.000000 81.224 2.7288
538.000000 81.193 3.1614
545.000000 81.176 3.4882
552.000000 81.154 3.8767
560.000000 81.115 4.4211
570.000000 81.074 5.0710
580.000000 81.038 5.7137
590.000000 80.997 6.3569
600.000000 80.962 6.9930
608.000000 80.942 7.4805
615.000000 80.928 7.9035
622.000000 80.911 8.3017
630.000000 80.891 8.7166
640.000000 80.869 9.1975
650.000000 80.850 9.7010
660.000000 80.844 10.3132
670.000000 80.838 10.8992
680.000000 80.825 11.4537
690.000000 80.809 12.0209
700.000000 80.792 12.5910
710.000000 80.778 13.1116
720.000000 80.772 13.5920
730.000000 80.764 14.1169
740.000000 80.750 14.7184
750.000000 80.730 15.3632
762.000000 80.695 16.0704
775.000000 80.661 16.8355
788.000000 80.628 17.6452
800.000000 80.602 18.3611
812.000000 80.574 19.0728
825.000000 80.547 19.8503
838.000000 80.531 20.6428
850.000000 80.530 21.3628
862.000000 80.521 21.9828
875.000000 80.509 22.6167
885.000000 80.503 23.1189
900.000000 80.505 23.8868
912.000000 80.519 24.4846
925.000000 80.540 25.1596
938.000000 80.557 25.8823
950.000000 80.567 26.5335
962.000000 80.576 27.1320
975.000000 80.591 27.7949
988.000000 80.611 28.4898
1000.000000 80.626 29.1440
1015.000000 80.642 29.9634
1030.000000 80.662 30.8247
1044.000000 80.679 31.6091
1060.000000 80.708 32.4568
1075.000000 80.742 33.2188
1090.000000 80.776 34.0162
1106.000000 80.815 34.8893
1120.000000 80.855 35.6131
1138.000000 80.909 36.5128
1150.000000 80.944 37.1186
1172.000000 81.015 38.3134
1180.000000 81.043 38.7474
1206.000000 81.142 40.0435
1220.000000 81.199 40.6970
1241.000000 81.281 41.6449
1250.000000 81.316 42.0468
1265.000000 81.374 42.7184
1280.000000 81.432 43.3864
1315.000000 81.576 44.9191
1320.000000 81.597 45.1318
1340.000000 81.681 45.9709
1360.000000 81.771 46.7846
1380.000000 81.862 47.5995
1400.000000 81.956 48.3860
1430.000000 82.101 49.4577
1450.000000 82.194 50.1553
1475.000000 82.317 51.0556
1500.000000 82.446 51.8711
1525.000000 82.567 52.6625
1550.000000 82.693 53.4662
1575.000000 82.827 54.2216
1600.000000 82.957 54.9515
1625.000000 83.088 55.6746
1650.000000 83.234 56.3980
1675.000000 83.379 57.0007
1700.000000 83.515 57.5636
1725.000000 83.653 58.1379
1750.000000 83.796 58.6686
1775.000000 83.941 59.1713
1800.000000 84.091 59.6766
1825.000000 84.236 60.1057
1850.000000 84.377 60.4778
1875.000000 84.527 60.7957
1900.000000 84.677 61.0374
1925.000000 84.813 61.2443
1950.000000 84.944 61.4087
1975.000000 85.068 61.5232
2000.000000 85.185 61.6674
2030.000000 85.327 61.8335
2060.000000 85.468 61.8948
2090.000000 85.593 61.9557
2120.000000 85.712 61.9851
2140.000000 85.785 61.9750
2180.000000 85.919 62.0517
2200.000000 85.989 62.1291
2240.000000 86.133 62.1861
2270.000000 86.240 62.2028
2300.000000 86.346 62.2145
2330.000000 86.440 62.1756
2360.000000 86.521 62.1624
2400.000000 86.630 62.2297
2430.000000 86.716 62.2886
2470.000000 86.830 62.2968
2500.000000 86.906 62.2318
2540.000000 86.992 62.1465
2580.000000 87.056 62.1506
2620.000000 87.116 62.4143
2650.000000 87.182 62.7284
2690.000000 87.296 63.0338
2720.000000 87.391 63.0809
2760.000000 87.475 62.8953
2800.000000 87.470 63.0295
2850.000000 87.537 64.4420
2900.000000 87.838 65.4798
2950.000000 88.122 65.2991
3000.000000 88.328 64.8014
3040.000000 88.457 64.4164
3070.000000 88.546 64.1991
3110.000000 88.673 63.9698
3150.000000 88.812 63.6784
3200.000000 88.984 63.1819
3250.000000 89.144 62.5509
3300.000000 89.296 61.8260
3350.000000 89.442 60.9416
3400.000000 89.571 59.9176
3450.000000 89.677 58.7360
3500.000000 89.750 57.4388
3550.000000 89.789 56.1133
3600.000000 89.797 54.7594
3650.000000 89.762 53.4233
3700.000000 89.691 52.2745
3750.000000 89.618 51.2750
3820.000000 89.491 49.7537
3870.000000 89.344 48.7163
3950.000000 89.042 47.6411
4000.000000 88.848 47.2910
4060.000000 88.611 47.1509
4120.000000 88.397 47.3813
4180.000000 88.228 47.7083
4250.000000 88.048 48.0553
4310.000000 87.898 48.4465
4370.000000 87.765 48.9088
4440.000000 87.641 49.3799
4500.000000 87.534 49.6024
4550.000000 87.422 49.7995
4620.000000 87.255 50.2908
4680.000000 87.122 50.8016
4750.000000 86.970 51.5294
4820.000000 86.846 52.4060
4870.000000 86.781 53.0229
4940.000000 86.718 53.7613
5000.000000 86.675 54.1730
5080.000000 86.606 54.4536
5150.000000 86.528 54.4876
5220.000000 86.419 54.3342
5300.000000 86.248 53.9897
5380.000000 86.008 53.5049
5450.000000 85.731 53.0966
5520.000000 85.389 52.6906
5600.000000 84.869 52.2843
5700.000000 83.959 52.7967
5800.000000 82.783 55.6562
5900.000000 81.398 62.9152
6000.000000 80.298 76.3486
6080.000000 80.249 90.0724
6150.000000 81.017 101.7616
6220.000000 82.290 110.9766
6300.000000 83.927 117.5513
6400.000000 85.867 120.8377
6500.000000 87.555 120.4073
6600.000000 88.953 117.6890
6700.000000 90.119 113.7956
6800.000000 91.118 109.0466
6900.000000 91.966 103.2790
7000.000000 92.580 96.4323
7100.000000 92.923 89.0597
7200.000000 92.987 81.8036
7300.000000 92.837 75.2670
7400.000000 92.531 69.4456
7500.000000 92.083 64.4631
7620.000000 91.403 59.7389
7750.000000 90.537 56.5625
7880.000000 89.700 55.6072
8000.000000 89.115 55.7596
8120.000000 88.670 55.8172
8250.000000 88.215 55.7210
8380.000000 87.757 55.8878
8500.000000 87.357 56.3487
8620.000000 87.001 57.0680
8750.000000 86.689 57.9564
8850.000000 86.510 58.4962
9000.000000 86.289 58.5255
9120.000000 86.068 57.8178
9250.000000 85.712 56.5700
9380.000000 85.172 55.1653
9500.000000 84.431 54.6070
9620.000000 83.464 56.3673
9750.000000 82.454 62.3025
9880.000000 82.051 71.0281
10000.000000 82.378 78.3474
10150.000000 83.221 83.7985
10300.000000 84.061 85.6108
10440.000000 84.709 85.4278
10600.000000 85.313 84.0923
10750.000000 85.782 81.9799
10900.000000 86.115 79.0428
11060.000000 86.286 75.5998
11200.000000 86.306 72.7909
11380.000000 86.201 69.8205
11500.000000 86.083 68.3492
11720.000000 85.846 66.7077
11800.000000 85.770 66.4959
12060.000000 85.731 66.8519
12200.000000 85.871 66.9130
12410.000000 86.171 66.1397
12500.000000 86.315 65.5319
12650.000000 86.566 64.1530
12800.000000 86.819 62.3717
13150.000000 87.497 56.8523
13200.000000 87.615 55.8259
13400.000000 88.146 50.6635
13600.000000 88.700 42.9949
13800.000000 89.059 31.9466
14000.000000 88.927 18.0283
14300.000000 87.502 -2.7242
14500.000000 85.949 -13.4159
14750.000000 83.736 -23.0894
15000.000000 81.439 -29.2881
15250.000000 79.252 -32.6158
15500.000000 77.344 -34.4501
15750.000000 75.724 -35.9293
16000.000000 74.316 -37.5386
16250.000000 73.070 -39.6061
16500.000000 71.943 -42.2747
16750.000000 70.879 -45.6664
17000.000000 69.807 -49.3346
17250.000000 68.791 -52.3327
17500.000000 68.061 -54.8813
17750.000000 67.703 -58.6890
18000.000000 67.727 -65.2209
18250.000000 68.003 -75.2051
18500.000000 68.459 -88.8608
18750.000000 69.094 -106.9048
19000.000000 69.807 -130.9490
19250.000000 70.297 -162.8730
19500.000000 70.171 157.3068
19750.000000 69.229 115.9863
