* Measurement data measured by REW V5.20.9
* Source: Headset (USB-C to 3.5mm Headphone Jack Adapter), MICROPHONE (Master Volume), L, volume: 0.250. Timing signal peak level -30.4 dBFS, measurement signal peak level -29.7 dBFS
* Format: 256k Log Swept Sine, 1 sweep at -12.0 dBFS using an acoustic timing reference
* Dated: 27/10/2023 9:07:30 PM
* REW Settings:
*  C-weighting compensation: Off
*  Target level: 75.0 dB
* Note: ; Delay -0.0237 ms (-8.1 mm, -0.32 in) using estimated IR delay relative to Acoustic reference on SPEAKER R with no timing offset
* Measurement: Supernova R
* Smoothing: 1/24 octave
* Frequency Step: 1/48 octave
* Start Frequency: 1.000 Hz
*
* Freq(Hz) SPL(dB) Phase(degrees)
1.000000 45.714 91.2435
1.015000 45.953 89.4951
1.030000 46.190 87.7952
1.044000 46.410 86.2578
1.060000 46.658 84.5659
1.075000 46.888 83.0494
1.090000 47.114 81.6069
1.106000 47.351 80.1539
1.120000 47.559 78.9403
1.138000 47.828 77.4504
1.150000 48.008 76.4984
1.172000 48.339 74.8319
1.180000 48.460 74.2496
1.206000 48.853 72.4356
1.220000 49.065 71.5039
1.241000 49.382 70.1581
1.250000 49.518 69.5983
1.265000 49.745 68.6850
1.280000 49.971 67.7935
1.315000 50.494 65.7783
1.320000 50.568 65.4960
1.340000 50.864 64.3755
1.360000 51.157 63.2629
1.380000 51.448 62.1499
1.400000 51.734 61.0283
1.430000 52.157 59.3120
1.450000 52.433 58.1332
1.475000 52.771 56.6115
1.500000 53.105 55.0747
1.525000 53.434 53.5365
1.550000 53.759 52.0003
1.575000 54.080 50.4695
1.600000 54.397 48.9476
1.625000 54.709 47.4380
1.650000 55.017 45.9442
1.675000 55.321 44.4696
1.700000 55.621 43.0176
1.725000 55.916 41.5916
1.750000 56.208 40.1952
1.775000 56.494 38.8318
1.800000 56.777 37.5048
1.825000 57.055 36.2176
1.850000 57.329 34.9738
1.875000 57.598 33.7732
1.900000 57.862 32.6120
1.925000 58.121 31.4864
1.950000 58.376 30.3925
1.975000 58.627 29.3264
2.000000 58.873 28.2842
2.030000 59.163 27.0596
2.060000 59.449 25.8573
2.090000 59.729 24.6705
2.120000 60.004 23.4924
2.140000 60.185 22.7086
2.180000 60.541 21.1359
2.200000 60.717 20.3431
2.240000 61.060 18.7643
2.270000 61.311 17.5935
2.300000 61.557 16.4345
2.330000 61.798 15.2875
2.360000 62.033 14.1526
2.400000 62.341 12.6588
2.430000 62.566 11.5532
2.470000 62.861 10.0992
2.500000 63.077 9.0241
2.540000 63.361 7.6115
2.580000 63.640 6.2229
2.620000 63.911 4.8566
2.650000 64.109 3.8463
2.690000 64.366 2.5190
2.720000 64.555 1.5387
2.760000 64.802 0.2524
2.800000 65.042 -1.0097
2.850000 65.336 -2.5525
2.900000 65.622 -4.0554
2.950000 65.902 -5.5160
3.000000 66.174 -6.9258
3.040000 66.384 -8.0197
3.070000 66.539 -8.8228
3.110000 66.740 -9.8737
3.150000 66.938 -10.9052
3.200000 67.179 -12.1731
3.250000 67.415 -13.4239
3.300000 67.647 -14.6652
3.350000 67.873 -15.8967
3.400000 68.092 -17.1123
3.450000 68.305 -18.3085
3.500000 68.513 -19.4814
3.550000 68.717 -20.6274
3.600000 68.917 -21.7426
3.650000 69.114 -22.8235
3.700000 69.308 -23.8646
3.750000 69.497 -24.8641
3.820000 69.754 -26.2064
3.870000 69.934 -27.1342
3.950000 70.215 -28.5850
4.000000 70.388 -29.4817
4.060000 70.593 -30.5560
4.120000 70.793 -31.6169
4.180000 70.989 -32.6604
4.250000 71.213 -33.8541
4.310000 71.402 -34.8551
4.370000 71.587 -35.8340
4.440000 71.801 -36.9441
4.500000 71.980 -37.8647
4.550000 72.128 -38.6142
4.620000 72.330 -39.6436
4.680000 72.501 -40.5141
4.750000 72.696 -41.5244
4.820000 72.888 -42.5318
4.870000 73.022 -43.2448
4.940000 73.207 -44.2330
5.000000 73.363 -45.0700
5.080000 73.566 -46.1705
5.150000 73.739 -47.1179
5.220000 73.909 -48.0509
5.300000 74.098 -49.1003
5.380000 74.282 -50.1327
5.450000 74.438 -51.0229
5.520000 74.592 -51.9014
5.600000 74.762 -52.8917
5.700000 74.968 -54.1070
5.800000 75.166 -55.2948
5.900000 75.359 -56.4527
6.000000 75.544 -57.5828
6.080000 75.688 -58.4661
6.150000 75.810 -59.2230
6.220000 75.931 -59.9641
6.300000 76.066 -60.7906
6.400000 76.229 -61.7941
6.500000 76.389 -62.7689
6.600000 76.545 -63.7194
6.700000 76.697 -64.6438
6.800000 76.847 -65.5420
6.900000 76.993 -66.4187
7.000000 77.138 -67.2774
7.100000 77.280 -68.1128
7.200000 77.421 -68.9299
7.300000 77.559 -69.7367
7.400000 77.695 -70.5362
7.500000 77.830 -71.3241
7.620000 77.989 -72.2591
7.750000 78.158 -73.2658
7.880000 78.324 -74.2632
8.000000 78.473 -75.1776
8.120000 78.618 -76.0887
8.250000 78.771 -77.0717
8.380000 78.919 -78.0474
8.500000 79.052 -78.9400
8.620000 79.180 -79.8263
8.750000 79.315 -80.7749
8.850000 79.416 -81.4940
9.000000 79.562 -82.5582
9.120000 79.674 -83.3939
9.250000 79.793 -84.2812
9.380000 79.909 -85.1509
9.500000 80.013 -85.9378
9.620000 80.115 -86.7087
9.750000 80.224 -87.5260
9.880000 80.331 -88.3285
10.000000 80.428 -89.0563
10.150000 80.549 -89.9490
10.300000 80.668 -90.8295
10.440000 80.779 -91.6392
10.600000 80.904 -92.5552
10.750000 81.020 -93.4090
10.900000 81.135 -94.2570
11.060000 81.255 -95.1588
11.200000 81.359 -95.9456
11.380000 81.490 -96.9531
11.500000 81.575 -97.6230
11.720000 81.728 -98.8435
11.800000 81.782 -99.2840
12.060000 81.953 -100.7026
12.200000 82.042 -101.4542
12.410000 82.171 -102.5649
12.500000 82.225 -103.0331
12.650000 82.314 -103.8036
12.800000 82.401 -104.5612
13.150000 82.598 -106.2781
13.200000 82.625 -106.5182
13.400000 82.734 -107.4649
13.600000 82.842 -108.3948
13.800000 82.947 -109.3092
14.000000 83.051 -110.2121
14.300000 83.203 -111.5467
14.500000 83.301 -112.4255
14.750000 83.420 -113.5105
15.000000 83.534 -114.5797
15.250000 83.644 -115.6302
15.500000 83.749 -116.6602
15.750000 83.851 -117.6691
16.000000 83.949 -118.6571
16.250000 84.043 -119.6270
16.500000 84.135 -120.5807
16.750000 84.224 -121.5207
17.000000 84.310 -122.4489
17.250000 84.393 -123.3655
17.500000 84.473 -124.2704
17.750000 84.550 -125.1630
18.000000 84.624 -126.0433
18.250000 84.696 -126.9115
18.500000 84.766 -127.7693
18.750000 84.835 -128.6178
19.000000 84.901 -129.4582
19.250000 84.965 -130.2911
19.500000 85.027 -131.1154
19.750000 85.086 -131.9301
20.000000 85.144 -132.7332
20.299999 85.212 -133.6805
20.600000 85.278 -134.6105
20.900000 85.342 -135.5258
21.200001 85.407 -136.4306
21.400000 85.449 -137.0306
21.799999 85.531 -138.2248
22.000000 85.571 -138.8190
22.400000 85.646 -139.9989
22.700001 85.700 -140.8719
23.000000 85.750 -141.7302
23.299999 85.798 -142.5711
23.600000 85.844 -143.3936
24.000000 85.903 -144.4627
24.299999 85.947 -145.2466
24.700001 86.003 -146.2734
25.000000 86.044 -147.0331
25.400000 86.096 -148.0342
25.799999 86.146 -149.0192
26.200001 86.193 -149.9848
26.500000 86.228 -150.6972
26.900000 86.274 -151.6382
27.200001 86.307 -152.3436
27.600000 86.349 -153.2877
28.000000 86.385 -154.2265
28.500000 86.425 -155.3620
29.000000 86.463 -156.4403
29.500000 86.507 -157.5020
30.000000 86.551 -158.6121
30.400000 86.578 -159.5369
30.700001 86.590 -160.2251
31.100000 86.598 -161.0840
31.500000 86.602 -161.8469
32.000000 86.620 -162.6957
32.500000 86.656 -163.5414
33.000000 86.698 -164.4785
33.500000 86.732 -165.4873
34.000000 86.753 -166.4792
34.500000 86.769 -167.4050
35.000000 86.790 -168.2907
35.500000 86.812 -169.1820
36.000000 86.832 -170.0843
36.500000 86.848 -170.9728
37.000000 86.861 -171.8329
37.500000 86.873 -172.6734
38.200001 86.889 -173.8328
38.700001 86.897 -174.6422
39.500000 86.909 -175.9006
40.000000 86.915 -176.6766
40.599998 86.921 -177.6003
41.200001 86.925 -178.5063
41.799999 86.929 -179.3972
42.500000 86.933 179.5672
43.099998 86.935 178.6835
43.700001 86.935 177.8171
44.400002 86.934 176.8309
45.000000 86.935 175.9977
45.500000 86.934 175.3117
46.200001 86.931 174.3730
46.799999 86.929 173.5872
47.500000 86.924 172.6828
48.200001 86.916 171.8047
48.700001 86.911 171.2023
49.400002 86.908 170.3667
50.000000 86.906 169.6188
50.799999 86.895 168.5849
51.500000 86.877 167.7117
52.200001 86.858 166.8869
53.000000 86.841 165.9606
53.799999 86.824 165.0317
54.500000 86.809 164.2292
55.200001 86.793 163.4426
56.000000 86.774 162.5642
57.000000 86.752 161.4900
58.000000 86.729 160.4331
59.000000 86.705 159.3972
60.000000 86.679 158.3779
60.799999 86.657 157.5742
61.500000 86.637 156.8820
62.200001 86.617 156.1998
63.000000 86.595 155.4296
64.000000 86.568 154.4751
65.000000 86.539 153.5277
66.000000 86.507 152.5942
67.000000 86.473 151.6868
68.000000 86.439 150.8092
69.000000 86.408 149.9453
70.000000 86.377 149.0824
71.000000 86.346 148.2245
72.000000 86.314 147.3785
73.000000 86.281 146.5469
74.000000 86.249 145.7306
75.000000 86.216 144.9300
76.199997 86.176 143.9857
77.500000 86.130 142.9767
78.800003 86.084 141.9855
80.000000 86.042 141.0830
81.199997 86.000 140.1907
82.500000 85.956 139.2434
83.800003 85.912 138.3230
85.000000 85.871 137.4835
86.199997 85.828 136.6588
87.500000 85.781 135.7799
88.500000 85.745 135.1061
90.000000 85.691 134.1019
91.199997 85.648 133.3113
92.500000 85.602 132.4794
93.800003 85.556 131.6806
95.000000 85.511 130.9530
96.199997 85.462 130.2277
97.500000 85.408 129.4298
98.800003 85.353 128.5977
100.000000 85.298 127.8295
101.500000 85.233 126.9890
103.000000 85.189 126.1954
104.400002 85.149 125.4379
106.000000 85.097 124.5795
107.500000 85.041 123.8017
109.000000 84.993 123.0440
110.599998 84.946 122.2249
112.000000 84.908 121.5471
113.800003 84.854 120.6964
115.000000 84.814 120.1576
117.199997 84.737 119.0578
118.000000 84.703 118.6370
120.599998 84.602 117.4001
122.000000 84.565 116.8148
124.099998 84.518 115.9269
125.000000 84.491 115.5378
126.500000 84.436 114.9349
128.000000 84.378 114.3836
131.500000 84.242 112.8859
132.000000 84.218 112.6531
134.000000 84.122 111.8931
136.000000 84.086 111.2507
138.000000 84.072 110.3939
140.000000 84.036 109.5560
143.000000 83.958 108.4046
145.000000 83.895 107.6197
147.500000 83.816 106.6590
150.000000 83.742 105.7712
152.500000 83.672 104.9980
155.000000 83.598 104.2950
157.500000 83.520 103.6432
160.000000 83.449 103.0255
162.500000 83.385 102.5315
165.000000 83.317 102.2903
167.500000 83.275 102.1362
170.000000 83.265 101.5006
172.500000 83.242 100.6539
175.000000 83.226 100.0420
177.500000 83.223 99.5847
180.000000 83.230 99.1223
182.500000 83.257 98.6159
185.000000 83.304 98.0323
187.500000 83.359 97.2759
190.000000 83.406 96.3060
192.500000 83.435 95.1693
195.000000 83.441 93.9649
197.500000 83.430 92.8100
200.000000 83.407 91.7322
203.000000 83.352 90.4605
206.000000 83.265 89.2742
209.000000 83.184 88.1985
212.000000 83.112 87.2234
214.000000 83.065 86.6243
218.000000 82.971 85.4952
220.000000 82.926 84.9527
224.000000 82.839 83.9177
227.000000 82.778 83.1744
230.000000 82.720 82.4647
233.000000 82.665 81.7911
236.000000 82.611 81.1258
240.000000 82.538 80.2558
243.000000 82.485 79.6285
247.000000 82.417 78.8168
250.000000 82.368 78.2240
254.000000 82.308 77.4598
258.000000 82.250 76.7219
262.000000 82.193 75.9914
265.000000 82.150 75.4556
269.000000 82.096 74.7745
272.000000 82.055 74.2864
276.000000 82.000 73.6560
280.000000 81.947 73.0468
285.000000 81.884 72.3223
290.000000 81.826 71.6268
295.000000 81.771 70.9532
300.000000 81.720 70.3216
304.000000 81.683 69.8492
307.000000 81.658 69.5169
311.000000 81.631 69.0919
315.000000 81.612 68.6560
320.000000 81.596 68.0628
325.000000 81.581 67.4069
330.000000 81.561 66.7130
335.000000 81.532 66.0086
340.000000 81.497 65.3223
345.000000 81.459 64.6679
350.000000 81.419 64.0616
355.000000 81.378 63.4859
360.000000 81.338 62.9383
365.000000 81.301 62.4200
370.000000 81.265 61.9189
375.000000 81.231 61.4413
382.000000 81.184 60.8134
387.000000 81.152 60.3780
395.000000 81.103 59.7039
400.000000 81.074 59.3086
406.000000 81.041 58.8520
412.000000 81.009 58.4017
418.000000 80.978 57.9600
425.000000 80.943 57.4762
431.000000 80.914 57.0875
437.000000 80.885 56.7091
444.000000 80.854 56.2842
450.000000 80.829 55.9369
455.000000 80.808 55.6559
462.000000 80.778 55.2819
468.000000 80.754 54.9755
475.000000 80.727 54.6312
482.000000 80.702 54.3151
487.000000 80.685 54.1044
494.000000 80.663 53.8189
500.000000 80.645 53.5789
508.000000 80.622 53.2712
515.000000 80.603 53.0194
522.000000 80.585 52.7788
530.000000 80.567 52.5171
538.000000 80.549 52.2785
545.000000 80.534 52.0874
552.000000 80.519 51.9056
560.000000 80.503 51.7063
570.000000 80.486 51.4800
580.000000 80.469 51.2729
590.000000 80.455 51.0906
600.000000 80.443 50.9303
608.000000 80.435 50.8124
615.000000 80.428 50.7212
622.000000 80.423 50.6412
630.000000 80.417 50.5549
640.000000 80.411 50.4510
650.000000 80.404 50.3649
660.000000 80.401 50.2996
670.000000 80.399 50.2490
680.000000 80.397 50.2083
690.000000 80.395 50.1801
700.000000 80.393 50.1655
710.000000 80.391 50.1625
720.000000 80.388 50.1856
730.000000 80.384 50.2427
740.000000 80.379 50.3341
750.000000 80.376 50.4590
762.000000 80.378 50.6613
775.000000 80.386 50.9380
788.000000 80.404 51.2624
800.000000 80.429 51.5904
812.000000 80.465 51.9233
825.000000 80.514 52.2775
838.000000 80.570 52.6165
850.000000 80.628 52.9109
862.000000 80.691 53.1897
875.000000 80.764 53.4774
885.000000 80.824 53.6845
900.000000 80.918 53.9647
912.000000 80.997 54.1629
925.000000 81.084 54.3530
938.000000 81.173 54.5157
950.000000 81.258 54.6398
962.000000 81.345 54.7437
975.000000 81.440 54.8343
988.000000 81.536 54.8978
1000.000000 81.625 54.9309
1015.000000 81.736 54.9442
1030.000000 81.847 54.9239
1044.000000 81.949 54.8745
1060.000000 82.064 54.7768
1075.000000 82.171 54.6532
1090.000000 82.276 54.5066
1106.000000 82.383 54.3297
1120.000000 82.475 54.1575
1138.000000 82.589 53.9166
1150.000000 82.662 53.7429
1172.000000 82.792 53.4047
1180.000000 82.837 53.2787
1206.000000 82.976 52.8606
1220.000000 83.048 52.6356
1241.000000 83.151 52.3043
1250.000000 83.194 52.1648
1265.000000 83.263 51.9323
1280.000000 83.329 51.6975
1315.000000 83.478 51.1694
1320.000000 83.498 51.0971
1340.000000 83.578 50.8179
1360.000000 83.656 50.5530
1380.000000 83.731 50.2987
1400.000000 83.805 50.0546
1430.000000 83.913 49.7039
1450.000000 83.984 49.4807
1475.000000 84.074 49.2172
1500.000000 84.162 48.9667
1525.000000 84.249 48.7261
1550.000000 84.336 48.4918
1575.000000 84.423 48.2704
1600.000000 84.509 48.0618
1625.000000 84.595 47.8589
1650.000000 84.681 47.6695
1675.000000 84.768 47.5020
1700.000000 84.855 47.3583
1725.000000 84.945 47.2542
1750.000000 85.043 47.1913
1775.000000 85.156 47.1486
1800.000000 85.288 47.0666
1825.000000 85.435 46.8676
1850.000000 85.585 46.5004
1875.000000 85.726 45.9865
1900.000000 85.851 45.3897
1925.000000 85.958 44.7641
1950.000000 86.054 44.1422
1975.000000 86.142 43.5396
2000.000000 86.224 42.9557
2030.000000 86.317 42.2811
2060.000000 86.406 41.6336
2090.000000 86.493 41.0119
2120.000000 86.583 40.4132
2140.000000 86.646 40.0143
2180.000000 86.785 39.1503
2200.000000 86.856 38.6529
2240.000000 86.991 37.4969
2270.000000 87.075 36.5237
2300.000000 87.141 35.5095
2330.000000 87.190 34.4943
2360.000000 87.224 33.5023
2400.000000 87.254 32.2300
2430.000000 87.267 31.3161
2470.000000 87.274 30.1533
2500.000000 87.274 29.3206
2540.000000 87.267 28.2426
2580.000000 87.252 27.1808
2620.000000 87.225 26.1422
2650.000000 87.196 25.3932
2690.000000 87.147 24.4615
2720.000000 87.104 23.8284
2760.000000 87.042 23.0801
2800.000000 86.983 22.4369
2850.000000 86.922 21.7304
2900.000000 86.879 21.0334
2950.000000 86.843 20.2499
3000.000000 86.798 19.3621
3040.000000 86.746 18.6178
3070.000000 86.697 18.0663
3110.000000 86.617 17.3704
3150.000000 86.523 16.7508
3200.000000 86.394 16.1256
3250.000000 86.260 15.6866
3300.000000 86.129 15.4276
3350.000000 86.009 15.3193
3400.000000 85.906 15.3160
3450.000000 85.820 15.3715
3500.000000 85.751 15.4467
3550.000000 85.696 15.5106
3600.000000 85.650 15.5489
3650.000000 85.609 15.5628
3700.000000 85.571 15.5616
3750.000000 85.536 15.5543
3820.000000 85.491 15.5417
3870.000000 85.463 15.5308
3950.000000 85.425 15.5114
4000.000000 85.406 15.4957
4060.000000 85.387 15.4637
4120.000000 85.372 15.4141
4180.000000 85.361 15.3414
4250.000000 85.354 15.2229
4310.000000 85.349 15.0914
4370.000000 85.345 14.9308
4440.000000 85.341 14.7037
4500.000000 85.335 14.4784
4550.000000 85.329 14.2717
4620.000000 85.316 13.9606
4680.000000 85.301 13.6788
4750.000000 85.278 13.3416
4820.000000 85.252 13.0090
4870.000000 85.231 12.7776
4940.000000 85.199 12.4601
5000.000000 85.168 12.1975
5080.000000 85.124 11.8729
5150.000000 85.083 11.6088
5220.000000 85.041 11.3674
5300.000000 84.991 11.1215
5380.000000 84.941 10.9095
5450.000000 84.897 10.7482
5520.000000 84.851 10.6092
5600.000000 84.796 10.5051
5700.000000 84.724 10.5208
5800.000000 84.673 10.7822
5900.000000 84.676 11.1252
6000.000000 84.715 11.3199
6080.000000 84.758 11.3835
6150.000000 84.804 11.4016
6220.000000 84.860 11.3868
6300.000000 84.937 11.3129
6400.000000 85.058 11.1057
6500.000000 85.210 10.7157
6600.000000 85.391 10.0584
6700.000000 85.600 9.0286
6800.000000 85.826 7.4970
6900.000000 86.049 5.3307
7000.000000 86.238 2.4089
7100.000000 86.348 -1.3337
7200.000000 86.320 -5.8172
7300.000000 86.093 -10.7440
7400.000000 85.621 -15.5154
7500.000000 84.900 -19.2942
7620.000000 83.791 -21.3587
7750.000000 82.547 -19.7083
7880.000000 81.691 -14.7014
8000.000000 81.539 -9.4891
8120.000000 81.881 -6.5020
8250.000000 82.327 -7.1695
8380.000000 82.445 -10.6850
8500.000000 82.176 -14.3738
8620.000000 81.636 -17.1101
8750.000000 80.900 -18.5236
8850.000000 80.309 -18.6024
9000.000000 79.465 -17.4757
9120.000000 78.858 -15.8328
9250.000000 78.272 -13.5630
9380.000000 77.761 -10.9209
9500.000000 77.354 -8.2588
9620.000000 77.009 -5.4719
9750.000000 76.699 -2.3823
9880.000000 76.445 0.7200
10000.000000 76.252 3.5520
10150.000000 76.055 7.0236
10300.000000 75.897 10.4359
10440.000000 75.785 13.5903
10600.000000 75.696 17.1414
10750.000000 75.649 20.4011
10900.000000 75.641 23.5727
11060.000000 75.677 26.8207
11200.000000 75.742 29.5061
11380.000000 75.863 32.7097
11500.000000 75.966 34.6760
11720.000000 76.184 37.9047
11800.000000 76.267 38.9917
12060.000000 76.583 42.4456
12200.000000 76.818 44.1118
12410.000000 77.236 45.9198
12500.000000 77.425 46.4056
12650.000000 77.738 46.8462
12800.000000 78.042 46.8670
13150.000000 78.675 45.5933
13200.000000 78.755 45.2965
13400.000000 79.056 43.9146
13600.000000 79.342 42.2826
13800.000000 79.628 40.3174
14000.000000 79.909 37.9908
14300.000000 80.354 34.0915
14500.000000 80.761 31.2052
14750.000000 81.512 26.3303
15000.000000 82.493 18.1895
15250.000000 83.366 4.5381
15500.000000 83.542 -14.6199
15750.000000 82.685 -35.1478
16000.000000 80.893 -52.4302
16250.000000 78.521 -64.1974
16500.000000 76.027 -70.9012
16750.000000 73.747 -74.1976
17000.000000 71.825 -75.5415
17250.000000 70.311 -76.0212
17500.000000 69.213 -76.5658
17750.000000 68.505 -78.0190
18000.000000 68.133 -81.0122
18250.000000 68.026 -86.0624
18500.000000 68.112 -93.5577
18750.000000 68.345 -103.7650
19000.000000 68.696 -117.2365
19250.000000 69.092 -134.8848
19500.000000 69.360 -157.2474
19750.000000 69.325 178.4017
