* Measurement data measured by REW V5.20.9
* Source: USB-C to 3.5mm Headphone Jack Adapter, USB-C to 3.5mm Headphone Jack Adapter, 0, volume: 0.138
* Format: 256k Log Swept Sine, 1 sweep at -12.0 dBFS with no timing reference
* Dated: 07/01/2023 2:03:40 PM
* REW Settings:
*  C-weighting compensation: Off
*  Target level: 75.0 dB
* Note: ; 
* Measurement: Talos BA R
* Smoothing: 1/24 octave
* Frequency Step: 1/48 octave
* Start Frequency: 1.000 Hz
*
* Freq(Hz) SPL(dB) Phase(degrees)
1.000000 43.644 21.9443
1.015000 43.940 23.2520
1.030000 44.257 24.4991
1.044000 44.574 25.6274
1.060000 44.957 26.8727
1.075000 45.336 27.9953
1.090000 45.730 29.0725
1.106000 46.167 30.1692
1.120000 46.560 31.0826
1.138000 47.078 32.1911
1.150000 47.429 32.8874
1.172000 48.081 34.0712
1.180000 48.320 34.4709
1.206000 49.098 35.6523
1.220000 49.515 36.2110
1.241000 50.133 36.9434
1.250000 50.393 37.2172
1.265000 50.821 37.6186
1.280000 51.238 37.9496
1.315000 52.158 38.4371
1.320000 52.282 38.4731
1.340000 52.758 38.5302
1.360000 53.202 38.4171
1.380000 53.630 38.0670
1.400000 54.044 37.5000
1.430000 54.639 36.2984
1.450000 55.020 35.3004
1.475000 55.481 33.8759
1.500000 55.926 32.3010
1.525000 56.357 30.6254
1.550000 56.776 28.8985
1.575000 57.183 27.1700
1.600000 57.582 25.4894
1.625000 57.973 23.9063
1.650000 58.358 22.4704
1.675000 58.740 21.2311
1.700000 59.117 20.1927
1.725000 59.481 19.2466
1.750000 59.835 18.3734
1.775000 60.177 17.5608
1.800000 60.510 16.7961
1.825000 60.833 16.0670
1.850000 61.148 15.3609
1.875000 61.456 14.6653
1.900000 61.756 13.9677
1.925000 62.050 13.2555
1.950000 62.338 12.5165
1.975000 62.622 11.7379
2.000000 62.902 10.9073
2.030000 63.234 9.8277
2.060000 63.556 8.6811
2.090000 63.867 7.4847
2.120000 64.169 6.2487
2.140000 64.366 5.4079
2.180000 64.748 3.6991
2.200000 64.933 2.8374
2.240000 65.296 1.1141
2.270000 65.560 -0.1662
2.300000 65.819 -1.4247
2.330000 66.073 -2.6512
2.360000 66.324 -3.8360
2.400000 66.647 -5.3822
2.430000 66.881 -6.5294
2.470000 67.184 -8.0408
2.500000 67.403 -9.1597
2.540000 67.687 -10.6304
2.580000 67.962 -12.0752
2.620000 68.229 -13.4922
2.650000 68.425 -14.5357
2.690000 68.681 -15.8995
2.720000 68.868 -16.8971
2.760000 69.108 -18.1888
2.800000 69.341 -19.4441
2.850000 69.619 -20.9739
2.900000 69.887 -22.4749
2.950000 70.145 -23.9626
3.000000 70.396 -25.4528
3.040000 70.591 -26.6574
3.070000 70.733 -27.5737
3.110000 70.916 -28.8067
3.150000 71.093 -30.0426
3.200000 71.307 -31.5751
3.250000 71.512 -33.0740
3.300000 71.712 -34.5181
3.350000 71.906 -35.8859
3.400000 72.096 -37.1598
3.450000 72.277 -38.3480
3.500000 72.452 -39.4698
3.550000 72.621 -40.5448
3.600000 72.785 -41.5924
3.650000 72.946 -42.6321
3.700000 73.104 -43.6832
3.750000 73.259 -44.7503
3.820000 73.467 -46.2421
3.870000 73.612 -47.2929
3.950000 73.837 -48.9214
4.000000 73.976 -49.8910
4.060000 74.141 -50.9890
4.120000 74.302 -52.0090
4.180000 74.461 -52.9692
4.250000 74.642 -54.0422
4.310000 74.796 -54.9459
4.370000 74.949 -55.8572
4.440000 75.126 -56.9307
4.500000 75.276 -57.8419
4.550000 75.399 -58.5938
4.620000 75.570 -59.6335
4.680000 75.715 -60.5109
4.750000 75.882 -61.5153
4.820000 76.047 -62.4947
4.870000 76.164 -63.1834
4.940000 76.325 -64.1395
5.000000 76.461 -64.9580
5.080000 76.637 -66.0568
5.150000 76.789 -67.0204
5.220000 76.937 -67.9827
5.300000 77.102 -69.0785
5.380000 77.260 -70.1678
5.450000 77.394 -71.1186
5.520000 77.524 -72.0690
5.600000 77.667 -73.1470
5.700000 77.837 -74.4692
5.800000 77.998 -75.7574
5.900000 78.149 -77.0198
6.000000 78.291 -78.2474
6.080000 78.400 -79.1988
6.150000 78.491 -80.0135
6.220000 78.577 -80.8104
6.300000 78.673 -81.6932
6.400000 78.789 -82.7450
6.500000 78.900 -83.7342
6.600000 79.007 -84.6688
6.700000 79.113 -85.5580
6.800000 79.219 -86.4040
6.900000 79.325 -87.2009
7.000000 79.432 -87.9628
7.100000 79.542 -88.7028
7.200000 79.654 -89.4069
7.300000 79.770 -90.0900
7.400000 79.888 -90.7767
7.500000 80.009 -91.4682
7.620000 80.159 -92.2977
7.750000 80.322 -93.2283
7.880000 80.487 -94.1991
8.000000 80.638 -95.1273
8.120000 80.785 -96.0943
8.250000 80.941 -97.1890
8.380000 81.089 -98.3172
8.500000 81.218 -99.3822
8.620000 81.338 -100.4738
8.750000 81.459 -101.6560
8.850000 81.545 -102.5617
9.000000 81.662 -103.9144
9.120000 81.747 -104.9651
9.250000 81.831 -106.0744
9.380000 81.907 -107.1470
9.500000 81.974 -108.0933
9.620000 82.037 -109.0005
9.750000 82.102 -109.9460
9.880000 82.167 -110.8507
10.000000 82.226 -111.6533
10.150000 82.301 -112.6334
10.300000 82.377 -113.5836
10.440000 82.447 -114.4605
10.600000 82.527 -115.4595
10.750000 82.601 -116.3906
10.900000 82.671 -117.3224
11.060000 82.742 -118.3088
11.200000 82.798 -119.1547
11.380000 82.865 -120.2181
11.500000 82.907 -120.8955
11.720000 82.978 -122.0747
11.800000 83.004 -122.4807
12.060000 83.088 -123.7129
12.200000 83.137 -124.3419
12.410000 83.218 -125.2495
12.500000 83.255 -125.6452
12.650000 83.320 -126.3065
12.800000 83.386 -126.9939
13.150000 83.533 -128.7320
13.200000 83.551 -128.9954
13.400000 83.618 -130.0735
13.600000 83.664 -131.1432
13.800000 83.693 -132.1697
14.000000 83.702 -133.0905
14.300000 83.702 -134.1844
14.500000 83.703 -134.7104
14.750000 83.724 -135.1475
15.000000 83.784 -135.4726
15.250000 83.881 -135.8256
15.500000 84.010 -136.3251
15.750000 84.152 -137.0791
16.000000 84.283 -138.0911
16.250000 84.389 -139.2929
16.500000 84.459 -140.5995
16.750000 84.490 -141.8866
17.000000 84.493 -143.0500
17.250000 84.479 -144.0554
17.500000 84.460 -144.8930
17.750000 84.448 -145.6017
18.000000 84.446 -146.2529
18.250000 84.451 -146.8894
18.500000 84.462 -147.5424
18.750000 84.469 -148.2123
19.000000 84.471 -148.8643
19.250000 84.471 -149.4725
19.500000 84.472 -150.0155
19.750000 84.480 -150.4961
20.000000 84.501 -150.9561
20.299999 84.544 -151.5427
20.600000 84.601 -152.2435
20.900000 84.659 -153.1018
21.200001 84.704 -154.1019
21.400000 84.720 -154.8133
21.799999 84.716 -156.2064
22.000000 84.700 -156.8301
22.400000 84.653 -157.8550
22.700001 84.624 -158.4192
23.000000 84.613 -158.8650
23.299999 84.627 -159.2820
23.600000 84.661 -159.7667
24.000000 84.719 -160.6349
24.299999 84.751 -161.4571
24.700001 84.757 -162.6744
25.000000 84.728 -163.5488
25.400000 84.656 -164.4987
25.799999 84.573 -165.1224
26.200001 84.509 -165.4923
26.500000 84.479 -165.6967
26.900000 84.457 -165.9673
27.200001 84.448 -166.1850
27.600000 84.442 -166.4669
28.000000 84.451 -166.7321
28.500000 84.492 -167.1584
29.000000 84.550 -167.9123
29.500000 84.579 -169.0354
30.000000 84.546 -170.2743
30.400000 84.481 -171.1435
30.700001 84.420 -171.6642
31.100000 84.339 -172.1798
31.500000 84.270 -172.5314
32.000000 84.213 -172.8312
32.500000 84.197 -173.1110
33.000000 84.213 -173.5526
33.500000 84.234 -174.2508
34.000000 84.229 -175.1081
34.500000 84.190 -175.9237
35.000000 84.131 -176.5508
35.500000 84.075 -176.9560
36.000000 84.041 -177.1952
36.500000 84.041 -177.4253
37.000000 84.058 -177.8586
37.500000 84.046 -178.5170
38.200001 83.940 -179.1422
38.700001 83.879 -179.0301
39.500000 83.947 -179.0466
40.000000 83.979 -179.8481
40.599998 83.875 179.1945
41.200001 83.743 179.1994
41.799999 83.754 179.3727
42.500000 83.779 178.3163
43.099998 83.619 177.4749
43.700001 83.471 177.9680
44.400002 83.571 178.3572
45.000000 83.631 177.1507
45.500000 83.511 176.2474
46.200001 83.345 176.7823
46.799999 83.472 177.3145
47.500000 83.617 175.8063
48.200001 83.432 174.3948
48.700001 83.293 174.8492
49.400002 83.410 175.5991
50.000000 83.567 174.4706
50.799999 83.419 172.3213
51.500000 83.169 172.3370
52.200001 83.134 172.9605
53.000000 83.179 172.3770
53.799999 83.061 171.4454
54.500000 82.913 171.3795
55.200001 82.841 171.6766
56.000000 82.834 171.6396
57.000000 82.758 171.1240
58.000000 82.663 171.4225
59.000000 82.754 171.4082
60.000000 82.739 169.9745
60.799999 82.547 169.4455
61.500000 82.415 169.9572
62.200001 82.415 170.5729
63.000000 82.486 170.5179
64.000000 82.479 169.6701
65.000000 82.366 169.1272
66.000000 82.265 169.0776
67.000000 82.215 169.0264
68.000000 82.163 168.7466
69.000000 82.079 168.5766
70.000000 82.013 168.7055
71.000000 82.001 168.8516
72.000000 82.022 168.7448
73.000000 82.036 168.3029
74.000000 82.003 167.6859
75.000000 81.919 167.2372
76.199997 81.813 167.1149
77.500000 81.728 167.1556
78.800003 81.655 167.2742
80.000000 81.606 167.3286
81.199997 81.546 167.3125
82.500000 81.491 167.3563
83.800003 81.458 167.2706
85.000000 81.420 167.0910
86.199997 81.367 166.9920
87.500000 81.311 167.0257
88.500000 81.268 167.0507
90.000000 81.181 167.0027
91.199997 81.092 166.9656
92.500000 81.007 166.8889
93.800003 80.944 166.6538
95.000000 80.888 166.3833
96.199997 80.850 166.3508
97.500000 80.866 166.4069
98.800003 80.886 166.2462
100.000000 80.850 166.0750
101.500000 80.760 166.2157
103.000000 80.684 166.5037
104.400002 80.629 166.6919
106.000000 80.576 166.7973
107.500000 80.525 166.8984
109.000000 80.479 167.0419
110.599998 80.428 167.0840
112.000000 80.375 167.0710
113.800003 80.318 167.0222
115.000000 80.286 166.9861
117.199997 80.235 166.9922
118.000000 80.212 166.9922
120.599998 80.140 166.8919
122.000000 80.102 166.5769
124.099998 79.979 166.2818
125.000000 79.935 166.5391
126.500000 79.930 167.1242
128.000000 79.945 167.5284
131.500000 79.874 167.9764
132.000000 79.856 168.0159
134.000000 79.800 168.1137
136.000000 79.766 168.1401
138.000000 79.729 168.2595
140.000000 79.682 168.5152
143.000000 79.609 168.8924
145.000000 79.566 168.9266
147.500000 79.504 168.9828
150.000000 79.456 169.1530
152.500000 79.408 169.4184
155.000000 79.360 169.6542
157.500000 79.310 169.8730
160.000000 79.269 170.0876
162.500000 79.233 170.2968
165.000000 79.196 170.5444
167.500000 79.161 170.7658
170.000000 79.117 170.9787
172.500000 79.077 171.1913
175.000000 79.044 171.3532
177.500000 79.004 171.5222
180.000000 78.960 171.8044
182.500000 78.928 172.0719
185.000000 78.897 172.2607
187.500000 78.864 172.4734
190.000000 78.829 172.7250
192.500000 78.792 172.9689
195.000000 78.764 173.1606
197.500000 78.731 173.3138
200.000000 78.686 173.5929
203.000000 78.636 174.0425
206.000000 78.595 174.4287
209.000000 78.558 174.7520
212.000000 78.518 175.0742
214.000000 78.488 175.3168
218.000000 78.438 175.9340
220.000000 78.427 176.2800
224.000000 78.394 176.8724
227.000000 78.349 177.3250
230.000000 78.351 177.8017
233.000000 78.412 178.1828
236.000000 78.481 178.4526
240.000000 78.520 178.5814
243.000000 78.516 178.5596
247.000000 78.501 178.5579
250.000000 78.487 178.6464
254.000000 78.467 178.9267
258.000000 78.440 179.1882
262.000000 78.408 179.4080
265.000000 78.395 179.5697
269.000000 78.384 179.7984
272.000000 78.369 179.9867
276.000000 78.335 -179.7779
280.000000 78.306 -179.5316
285.000000 78.282 -179.1588
290.000000 78.264 -178.7029
295.000000 78.240 -178.2674
300.000000 78.228 -177.9113
304.000000 78.210 -177.6393
307.000000 78.193 -177.4297
311.000000 78.175 -177.1264
315.000000 78.157 -176.8184
320.000000 78.138 -176.4685
325.000000 78.121 -176.0936
330.000000 78.100 -175.7225
335.000000 78.082 -175.3515
340.000000 78.071 -174.9639
345.000000 78.060 -174.5498
350.000000 78.042 -174.1360
355.000000 78.030 -173.8421
360.000000 78.022 -173.5240
365.000000 78.015 -173.1625
370.000000 78.004 -172.7883
375.000000 77.994 -172.4178
382.000000 77.987 -171.9277
387.000000 77.980 -171.5592
395.000000 77.978 -170.9762
400.000000 77.977 -170.6364
406.000000 77.963 -170.2179
412.000000 77.950 -169.7835
418.000000 77.943 -169.3576
425.000000 77.937 -168.8707
431.000000 77.934 -168.4517
437.000000 77.931 -168.0388
444.000000 77.930 -167.4930
450.000000 77.932 -167.0091
455.000000 77.930 -166.6823
462.000000 77.924 -166.2215
468.000000 77.916 -165.7589
475.000000 77.919 -165.2539
482.000000 77.935 -164.8503
487.000000 77.941 -164.5470
494.000000 77.950 -164.0855
500.000000 77.959 -163.6835
508.000000 77.954 -163.1418
515.000000 77.952 -162.6653
522.000000 77.966 -162.2287
530.000000 77.980 -161.7794
538.000000 77.980 -161.2104
545.000000 77.978 -160.7213
552.000000 77.982 -160.2551
560.000000 78.000 -159.6778
570.000000 78.020 -158.9716
580.000000 78.038 -158.3135
590.000000 78.059 -157.6640
600.000000 78.082 -156.9548
608.000000 78.095 -156.4385
615.000000 78.105 -155.9987
622.000000 78.119 -155.5401
630.000000 78.141 -155.0104
640.000000 78.171 -154.3598
650.000000 78.201 -153.7125
660.000000 78.225 -153.0481
670.000000 78.253 -152.3757
680.000000 78.285 -151.7221
690.000000 78.317 -151.0481
700.000000 78.350 -150.3466
710.000000 78.386 -149.7065
720.000000 78.425 -149.0759
730.000000 78.467 -148.4395
740.000000 78.510 -147.8039
750.000000 78.552 -147.1587
762.000000 78.611 -146.3718
775.000000 78.676 -145.5455
788.000000 78.746 -144.7107
800.000000 78.817 -143.9594
812.000000 78.883 -143.2419
825.000000 78.957 -142.4768
838.000000 79.038 -141.6913
850.000000 79.116 -140.9689
862.000000 79.195 -140.3022
875.000000 79.285 -139.5877
885.000000 79.355 -139.0392
900.000000 79.462 -138.2423
912.000000 79.551 -137.6450
925.000000 79.651 -137.0094
938.000000 79.755 -136.4023
950.000000 79.853 -135.8656
962.000000 79.949 -135.3264
975.000000 80.053 -134.7672
988.000000 80.159 -134.2367
1000.000000 80.257 -133.7694
1015.000000 80.380 -133.2325
1030.000000 80.504 -132.7332
1044.000000 80.620 -132.2855
1060.000000 80.750 -131.7806
1075.000000 80.870 -131.3465
1090.000000 80.991 -130.9463
1106.000000 81.120 -130.5456
1120.000000 81.230 -130.2153
1138.000000 81.369 -129.8077
1150.000000 81.460 -129.5484
1172.000000 81.627 -129.0806
1180.000000 81.687 -128.9175
1206.000000 81.879 -128.4135
1220.000000 81.980 -128.1550
1241.000000 82.131 -127.7826
1250.000000 82.196 -127.6267
1265.000000 82.303 -127.3668
1280.000000 82.410 -127.1103
1315.000000 82.658 -126.5481
1320.000000 82.693 -126.4711
1340.000000 82.833 -126.1611
1360.000000 82.973 -125.8587
1380.000000 83.115 -125.5624
1400.000000 83.258 -125.2794
1430.000000 83.476 -124.8738
1450.000000 83.620 -124.6168
1475.000000 83.803 -124.3210
1500.000000 83.989 -124.0366
1525.000000 84.177 -123.7750
1550.000000 84.367 -123.5452
1575.000000 84.560 -123.3504
1600.000000 84.757 -123.1840
1625.000000 84.957 -123.0549
1650.000000 85.160 -122.9616
1675.000000 85.364 -122.9122
1700.000000 85.571 -122.9050
1725.000000 85.781 -122.9457
1750.000000 85.994 -123.0364
1775.000000 86.209 -123.1767
1800.000000 86.424 -123.3691
1825.000000 86.641 -123.6173
1850.000000 86.862 -123.9291
1875.000000 87.084 -124.3145
1900.000000 87.307 -124.7744
1925.000000 87.528 -125.3162
1950.000000 87.747 -125.9424
1975.000000 87.963 -126.6442
2000.000000 88.175 -127.4253
2030.000000 88.422 -128.4748
2060.000000 88.662 -129.6339
2090.000000 88.892 -130.9035
2120.000000 89.111 -132.2833
2140.000000 89.251 -133.2620
2180.000000 89.510 -135.3567
2200.000000 89.629 -136.4662
2240.000000 89.843 -138.7997
2270.000000 89.983 -140.6367
2300.000000 90.106 -142.5355
2330.000000 90.211 -144.4939
2360.000000 90.298 -146.5010
2400.000000 90.388 -149.2405
2430.000000 90.439 -151.3549
2470.000000 90.489 -154.2941
2500.000000 90.515 -156.6464
2540.000000 90.530 -160.1585
2580.000000 90.487 -164.4162
2620.000000 90.277 -169.6795
2650.000000 89.894 -173.9716
2690.000000 88.955 -178.2050
2720.000000 88.021 -178.3969
2760.000000 87.015 -174.6314
2800.000000 86.697 -170.0829
2850.000000 86.800 -167.1713
2900.000000 86.907 -166.6153
2950.000000 86.911 -166.9352
3000.000000 86.839 -167.4935
3040.000000 86.746 -167.9657
3070.000000 86.661 -168.3080
3110.000000 86.534 -168.7437
3150.000000 86.394 -169.1607
3200.000000 86.203 -169.6447
3250.000000 85.991 -170.0833
3300.000000 85.757 -170.4751
3350.000000 85.493 -170.8039
3400.000000 85.194 -171.0421
3450.000000 84.845 -171.1006
3500.000000 84.435 -170.7551
3550.000000 83.973 -169.6842
3600.000000 83.501 -167.5395
3650.000000 83.111 -164.1590
3700.000000 82.934 -159.8748
3750.000000 83.041 -155.5454
3820.000000 83.571 -150.9834
3870.000000 84.089 -149.2977
3950.000000 84.982 -149.2925
4000.000000 85.540 -150.9556
4060.000000 86.189 -154.9476
4120.000000 86.782 -162.3370
4180.000000 86.950 -175.6533
4250.000000 85.514 165.4160
4310.000000 82.334 162.5700
4370.000000 78.318 -179.5343
4440.000000 76.638 -151.3109
4500.000000 77.914 -135.0208
4550.000000 79.284 -128.2386
4620.000000 80.679 -126.2916
4680.000000 81.335 -127.0099
4750.000000 81.761 -127.7455
4820.000000 81.952 -128.0340
4870.000000 81.983 -127.5240
4940.000000 82.086 -125.5431
5000.000000 82.323 -123.8160
5080.000000 82.683 -122.4676
5150.000000 82.954 -121.8184
5220.000000 83.189 -121.3651
5300.000000 83.433 -121.0857
5380.000000 83.646 -121.2058
5450.000000 83.789 -121.8247
5520.000000 83.798 -123.2487
5600.000000 83.377 -124.2033
5700.000000 82.727 -119.1334
5800.000000 82.923 -112.8348
5900.000000 83.485 -108.7798
6000.000000 84.005 -107.3179
6080.000000 84.191 -106.7247
6150.000000 84.218 -105.4365
6220.000000 84.231 -102.9007
6300.000000 84.380 -98.2821
6400.000000 85.291 -90.1777
6500.000000 87.050 -85.3492
6600.000000 88.641 -86.8084
6700.000000 89.814 -91.1412
6800.000000 90.646 -96.2781
6900.000000 91.238 -100.9719
7000.000000 91.823 -104.8328
7100.000000 92.421 -109.2702
7200.000000 92.861 -113.7544
7300.000000 93.420 -117.2101
7400.000000 94.196 -121.6978
7500.000000 94.986 -128.1716
7620.000000 95.769 -138.8376
7750.000000 96.125 -153.3118
7880.000000 95.877 -168.9800
8000.000000 95.118 176.1889
8120.000000 93.636 162.2341
8250.000000 90.920 155.4817
8380.000000 88.018 160.9327
8500.000000 86.524 169.1048
8620.000000 85.978 176.1623
8750.000000 85.904 -178.1752
8850.000000 85.975 -174.5926
9000.000000 86.601 -169.0832
9120.000000 87.582 -167.9435
9250.000000 88.354 -171.5536
9380.000000 88.684 -175.4948
9500.000000 89.104 -178.4284
9620.000000 89.565 176.8205
9750.000000 89.800 170.0944
9880.000000 89.786 163.3530
10000.000000 89.645 157.3664
10150.000000 89.307 150.0900
10300.000000 88.767 143.6012
10440.000000 88.168 138.8824
10600.000000 87.558 134.6154
10750.000000 87.101 130.5904
10900.000000 86.620 126.1338
11060.000000 86.025 121.6656
11200.000000 85.455 118.2373
11380.000000 84.794 115.3041
11500.000000 84.588 113.2704
11720.000000 84.409 105.9028
11800.000000 84.269 102.1360
12060.000000 83.261 88.5281
12200.000000 82.422 81.5810
12410.000000 80.941 70.9464
12500.000000 80.131 66.5146
12650.000000 78.454 61.1854
12800.000000 76.590 59.1253
13150.000000 72.668 59.2830
13200.000000 72.108 59.8592
13400.000000 69.805 65.2654
13600.000000 67.756 76.8153
13800.000000 66.917 92.9095
14000.000000 67.907 107.9901
14300.000000 71.595 120.0480
14500.000000 74.300 118.0754
14750.000000 77.402 107.0583
15000.000000 80.314 89.8332
15250.000000 82.920 65.6763
15500.000000 84.447 34.9755
15750.000000 85.297 5.0959
16000.000000 86.114 -23.5395
16250.000000 87.031 -53.5598
16500.000000 87.801 -87.1200
16750.000000 88.071 -123.7606
17000.000000 87.799 -160.6842
17250.000000 87.410 162.7097
17500.000000 86.891 122.9097
17750.000000 85.712 82.4393
18000.000000 84.273 43.6888
18250.000000 83.028 3.9125
18500.000000 81.956 -38.9432
18750.000000 81.072 -85.8335
19000.000000 80.553 -139.7959
19250.000000 80.183 154.6318
19500.000000 79.394 76.4443
19750.000000 77.914 -4.0176
