* Measurement data measured by REW V5.20.9
* Source: Headset (USB-C to 3.5mm Headphone Jack Adapter), MICROPHONE (Master Volume), R, volume: 0.800. Timing signal peak level -24.5 dBFS, measurement signal peak level -21.4 dBFS
* Format: 256k Log Swept Sine, 1 sweep at -12.0 dBFS using an acoustic timing reference
* Dated: 13/07/2022 8:22:45 PM
* REW Settings:
*  C-weighting compensation: Off
*  Target level: 75.0 dB
* Note: ; Delay -0.0356 ms (-12 mm, -0.48 in) using estimated IR delay relative to Acoustic reference on  L with no timing offset
* Measurement: Titan S L
* Smoothing: 1/24 octave
* Frequency Step: 1/48 octave
* Start Frequency: 1.000 Hz
*
* Freq(Hz) SPL(dB) Phase(degrees)
1.000000 58.502 42.2247
1.015000 58.822 39.9579
1.030000 59.137 37.7881
1.044000 59.425 35.8594
1.060000 59.745 33.7799
1.075000 60.036 31.9615
1.090000 60.316 30.2801
1.106000 60.602 28.6482
1.120000 60.850 27.3550
1.138000 61.167 25.8641
1.150000 61.377 24.9702
1.172000 61.759 23.5208
1.180000 61.897 23.0499
1.206000 62.342 21.7028
1.220000 62.580 21.0811
1.241000 62.932 20.2636
1.250000 63.082 19.9500
1.265000 63.329 19.4686
1.280000 63.574 19.0308
1.315000 64.137 18.1253
1.320000 64.216 18.0041
1.340000 64.529 17.5253
1.360000 64.838 17.0398
1.380000 65.141 16.5250
1.400000 65.438 15.9585
1.430000 65.874 14.9627
1.450000 66.156 14.1688
1.475000 66.500 13.0045
1.500000 66.834 11.7511
1.525000 67.158 10.4459
1.550000 67.473 9.0993
1.575000 67.779 7.7217
1.600000 68.077 6.3236
1.625000 68.367 4.9155
1.650000 68.649 3.5078
1.675000 68.925 2.1110
1.700000 69.195 0.7355
1.725000 69.459 -0.6083
1.750000 69.718 -1.9098
1.775000 69.972 -3.1586
1.800000 70.221 -4.3443
1.825000 70.468 -5.4564
1.850000 70.709 -6.4916
1.875000 70.944 -7.4651
1.900000 71.172 -8.3838
1.925000 71.394 -9.2537
1.950000 71.610 -10.0812
1.975000 71.821 -10.8723
2.000000 72.026 -11.6333
2.030000 72.266 -12.5155
2.060000 72.499 -13.3740
2.090000 72.727 -14.2195
2.120000 72.949 -15.0627
2.140000 73.094 -15.6289
2.180000 73.379 -16.7852
2.200000 73.519 -17.3815
2.240000 73.791 -18.5856
2.270000 73.986 -19.4866
2.300000 74.175 -20.3836
2.330000 74.358 -21.2744
2.360000 74.536 -22.1569
2.400000 74.765 -23.3170
2.430000 74.932 -24.1717
2.470000 75.149 -25.2870
2.500000 75.308 -26.1023
2.540000 75.516 -27.1573
2.580000 75.720 -28.1729
2.620000 75.916 -29.1623
2.650000 76.058 -29.8883
2.690000 76.240 -30.8327
2.720000 76.373 -31.5221
2.760000 76.545 -32.4137
2.800000 76.713 -33.2718
2.850000 76.919 -34.2931
2.900000 77.122 -35.2530
2.950000 77.324 -36.1434
3.000000 77.519 -36.9411
3.040000 77.671 -37.5211
3.070000 77.783 -37.9294
3.110000 77.930 -38.4467
3.150000 78.076 -38.9434
3.200000 78.256 -39.5515
3.250000 78.437 -40.1656
3.300000 78.619 -40.8068
3.350000 78.802 -41.4650
3.400000 78.984 -42.1216
3.450000 79.166 -42.7738
3.500000 79.346 -43.4192
3.550000 79.527 -44.0549
3.600000 79.708 -44.6785
3.650000 79.889 -45.2873
3.700000 80.072 -45.8701
3.750000 80.256 -46.4143
3.820000 80.514 -47.1411
3.870000 80.698 -47.6579
3.950000 80.990 -48.5270
4.000000 81.170 -49.1226
4.060000 81.381 -49.9130
4.120000 81.593 -50.7683
4.180000 81.802 -51.6722
4.250000 82.042 -52.7704
4.310000 82.242 -53.7336
4.370000 82.436 -54.7029
4.440000 82.652 -55.8330
4.500000 82.832 -56.8168
4.550000 82.977 -57.6480
4.620000 83.173 -58.8278
4.680000 83.334 -59.8528
4.750000 83.511 -61.0632
4.820000 83.677 -62.3004
4.870000 83.789 -63.2073
4.940000 83.937 -64.4930
5.000000 84.056 -65.5950
5.080000 84.204 -67.0390
5.150000 84.324 -68.2584
5.220000 84.433 -69.4577
5.300000 84.545 -70.8062
5.380000 84.647 -72.1178
5.450000 84.729 -73.2244
5.520000 84.807 -74.2846
5.600000 84.887 -75.4487
5.700000 84.974 -76.8351
5.800000 85.055 -78.1417
5.900000 85.135 -79.3629
6.000000 85.209 -80.4887
6.080000 85.266 -81.3329
6.150000 85.317 -82.0407
6.220000 85.370 -82.7282
6.300000 85.434 -83.4792
6.400000 85.515 -84.3563
6.500000 85.600 -85.2020
6.600000 85.687 -86.0560
6.700000 85.779 -86.9145
6.800000 85.874 -87.7676
6.900000 85.969 -88.6297
7.000000 86.061 -89.5150
7.100000 86.152 -90.4226
7.200000 86.241 -91.3428
7.300000 86.324 -92.2661
7.400000 86.398 -93.1954
7.500000 86.467 -94.1400
7.620000 86.540 -95.2534
7.750000 86.608 -96.3888
7.880000 86.662 -97.4743
8.000000 86.706 -98.4050
8.120000 86.747 -99.2350
8.250000 86.786 -100.0303
8.380000 86.827 -100.7305
8.500000 86.874 -101.2901
8.620000 86.927 -101.7559
8.750000 86.995 -102.2141
8.850000 87.059 -102.5615
9.000000 87.172 -103.0346
9.120000 87.274 -103.4363
9.250000 87.394 -103.9432
9.380000 87.526 -104.4982
9.500000 87.649 -105.0778
9.620000 87.771 -105.7425
9.750000 87.903 -106.5450
9.880000 88.027 -107.4070
10.000000 88.131 -108.2587
10.150000 88.250 -109.3904
10.300000 88.351 -110.5187
10.440000 88.429 -111.5795
10.600000 88.503 -112.7544
10.750000 88.559 -113.7767
10.900000 88.603 -114.7357
11.060000 88.649 -115.6633
11.200000 88.685 -116.3908
11.380000 88.736 -117.2546
11.500000 88.774 -117.7825
11.720000 88.854 -118.7063
11.800000 88.886 -119.0459
12.060000 89.002 -120.1602
12.200000 89.066 -120.8107
12.410000 89.164 -121.8450
12.500000 89.202 -122.3118
12.650000 89.263 -123.1260
12.800000 89.318 -123.9624
13.150000 89.411 -125.9547
13.200000 89.421 -126.2342
13.400000 89.451 -127.3403
13.600000 89.470 -128.3981
13.800000 89.478 -129.3956
14.000000 89.481 -130.3290
14.300000 89.476 -131.6069
14.500000 89.469 -132.3801
14.750000 89.458 -133.2544
15.000000 89.448 -134.0241
15.250000 89.443 -134.6809
15.500000 89.450 -135.2390
15.750000 89.472 -135.7192
16.000000 89.515 -136.1673
16.250000 89.580 -136.6569
16.500000 89.660 -137.2292
16.750000 89.751 -137.9385
17.000000 89.836 -138.7885
17.250000 89.911 -139.7532
17.500000 89.965 -140.7937
17.750000 89.996 -141.8181
18.000000 90.007 -142.7747
18.250000 90.004 -143.6075
18.500000 89.998 -144.2848
18.750000 89.998 -144.8286
19.000000 90.011 -145.2610
19.250000 90.043 -145.6595
19.500000 90.090 -146.0783
19.750000 90.149 -146.5597
20.000000 90.210 -147.1400
20.299999 90.275 -147.9398
20.600000 90.321 -148.8008
20.900000 90.344 -149.6420
21.200001 90.350 -150.3786
21.400000 90.351 -150.7862
21.799999 90.359 -151.4271
22.000000 90.371 -151.6929
22.400000 90.419 -152.2240
22.700001 90.467 -152.7036
23.000000 90.514 -153.2885
23.299999 90.549 -153.9466
23.600000 90.569 -154.6243
24.000000 90.575 -155.4778
24.299999 90.572 -156.0538
24.700001 90.566 -156.7664
25.000000 90.560 -157.2974
25.400000 90.541 -158.0133
25.799999 90.504 -158.6656
26.200001 90.454 -159.1416
26.500000 90.422 -159.3586
26.900000 90.404 -159.5244
27.200001 90.415 -159.6511
27.600000 90.452 -159.9425
28.000000 90.495 -160.4251
28.500000 90.532 -161.2122
29.000000 90.542 -162.0290
29.500000 90.536 -162.7563
30.000000 90.527 -163.3147
30.400000 90.536 -163.6236
30.700001 90.562 -163.8143
31.100000 90.629 -164.1568
31.500000 90.715 -164.7639
32.000000 90.794 -165.9812
32.500000 90.782 -167.3840
33.000000 90.685 -168.3588
33.500000 90.583 -168.6189
34.000000 90.557 -168.4867
34.500000 90.605 -168.5446
35.000000 90.659 -169.0146
35.500000 90.666 -169.6590
36.000000 90.635 -170.1522
36.500000 90.600 -170.4187
37.000000 90.586 -170.5947
37.500000 90.587 -170.8137
38.200001 90.594 -171.2594
38.700001 90.593 -171.6523
39.500000 90.580 -172.2836
40.000000 90.578 -172.6495
40.599998 90.592 -173.1903
41.200001 90.596 -173.9875
41.799999 90.549 -174.8624
42.500000 90.447 -175.5020
43.099998 90.382 -175.6778
43.700001 90.358 -175.8180
44.400002 90.353 -176.0952
45.000000 90.362 -176.4012
45.500000 90.379 -176.8038
46.200001 90.376 -177.6745
46.799999 90.318 -178.4206
47.500000 90.232 -178.9775
48.200001 90.163 -179.5075
48.700001 90.090 -179.9142
49.400002 89.948 -179.9956
50.000000 89.890 -179.4641
50.799999 89.989 -178.9863
51.500000 90.107 -179.5152
52.200001 90.144 179.5632
53.000000 90.114 178.7227
53.799999 90.066 178.2614
54.500000 90.053 178.0858
55.200001 90.076 177.7709
56.000000 90.070 177.0703
57.000000 89.973 176.4842
58.000000 89.896 176.4297
59.000000 89.870 176.5032
60.000000 89.923 176.3177
60.799999 89.948 175.5281
61.500000 89.888 174.7849
62.200001 89.794 174.4722
63.000000 89.728 174.4573
64.000000 89.691 174.3498
65.000000 89.660 174.2000
66.000000 89.636 173.9013
67.000000 89.574 173.4628
68.000000 89.493 173.1732
69.000000 89.433 172.8268
70.000000 89.370 172.3248
71.000000 89.302 171.8832
72.000000 89.254 171.5417
73.000000 89.214 171.2266
74.000000 89.153 171.0667
75.000000 89.073 171.2481
76.199997 88.992 171.8129
77.500000 88.925 172.4670
78.800003 88.946 172.9936
80.000000 89.030 172.3322
81.199997 89.007 171.1672
82.500000 88.941 170.7231
83.800003 89.004 171.1007
85.000000 89.102 170.7794
86.199997 89.055 170.3531
87.500000 88.955 169.9113
88.500000 88.810 169.3365
90.000000 88.564 168.9634
91.199997 88.471 168.7385
92.500000 88.390 168.2180
93.800003 88.225 168.2646
95.000000 88.079 169.2548
96.199997 88.009 170.2228
97.500000 87.903 170.5548
98.800003 87.784 171.2406
100.000000 87.907 171.5768
101.500000 88.109 170.0857
103.000000 88.190 168.8756
104.400002 88.245 168.4650
106.000000 88.226 168.4453
107.500000 88.151 168.4951
109.000000 88.054 168.3503
110.599998 87.984 167.7876
112.000000 87.894 167.1996
113.800003 87.743 167.3607
115.000000 87.666 167.9502
117.199997 87.568 168.9816
118.000000 87.544 169.1583
120.599998 87.408 169.0299
122.000000 87.348 169.5439
124.099998 87.448 170.6318
125.000000 87.512 170.9370
126.500000 87.597 171.2837
128.000000 87.635 171.3206
131.500000 87.519 171.0798
132.000000 87.517 171.0650
134.000000 87.578 170.5118
136.000000 87.629 169.5746
138.000000 87.642 168.9586
140.000000 87.612 168.7021
143.000000 87.544 168.5482
145.000000 87.480 168.3094
147.500000 87.354 168.0799
150.000000 87.224 168.1057
152.500000 87.191 168.0067
155.000000 87.177 167.8708
157.500000 87.142 168.0531
160.000000 87.078 168.2452
162.500000 87.023 168.2642
165.000000 86.985 168.2175
167.500000 86.943 168.2639
170.000000 86.895 168.3085
172.500000 86.845 168.2720
175.000000 86.794 168.2701
177.500000 86.744 168.3352
180.000000 86.692 168.3925
182.500000 86.640 168.4543
185.000000 86.594 168.5466
187.500000 86.550 168.6441
190.000000 86.503 168.7526
192.500000 86.458 168.8633
195.000000 86.417 168.9673
197.500000 86.377 169.0916
200.000000 86.336 169.2058
203.000000 86.280 169.3281
206.000000 86.231 169.4831
209.000000 86.191 169.6505
212.000000 86.146 169.8132
214.000000 86.113 169.9212
218.000000 86.050 170.1355
220.000000 86.023 170.2479
224.000000 85.974 170.4988
227.000000 85.939 170.7317
230.000000 85.903 170.9657
233.000000 85.862 171.1376
236.000000 85.819 171.2961
240.000000 85.774 171.5342
243.000000 85.747 171.6987
247.000000 85.731 171.9538
250.000000 85.719 172.1725
254.000000 85.665 172.4634
258.000000 85.608 172.7218
262.000000 85.566 172.9674
265.000000 85.533 173.1586
269.000000 85.492 173.4050
272.000000 85.467 173.5741
276.000000 85.438 173.7815
280.000000 85.407 174.0026
285.000000 85.362 174.3346
290.000000 85.319 174.6926
295.000000 85.279 175.0379
300.000000 85.241 175.3290
304.000000 85.210 175.5803
307.000000 85.188 175.7834
311.000000 85.161 176.0535
315.000000 85.133 176.3258
320.000000 85.099 176.6757
325.000000 85.066 176.9982
330.000000 85.035 177.3072
335.000000 85.009 177.6317
340.000000 84.982 177.9552
345.000000 84.955 178.3431
350.000000 84.926 178.7418
355.000000 84.899 179.0312
360.000000 84.876 179.2980
365.000000 84.850 179.5955
370.000000 84.824 179.9163
375.000000 84.801 -179.7488
382.000000 84.772 -179.2724
387.000000 84.749 -178.9292
395.000000 84.715 -178.4075
400.000000 84.698 -178.0836
406.000000 84.679 -177.6966
412.000000 84.658 -177.3136
418.000000 84.636 -176.9240
425.000000 84.610 -176.4652
431.000000 84.590 -176.0951
437.000000 84.577 -175.7290
444.000000 84.566 -175.3430
450.000000 84.556 -175.0321
455.000000 84.538 -174.6607
462.000000 84.513 -174.1066
468.000000 84.498 -173.6930
475.000000 84.482 -173.2267
482.000000 84.465 -172.7641
487.000000 84.453 -172.4445
494.000000 84.440 -171.9923
500.000000 84.431 -171.5888
508.000000 84.417 -171.0648
515.000000 84.406 -170.6331
522.000000 84.394 -170.1961
530.000000 84.385 -169.6913
538.000000 84.376 -169.1883
545.000000 84.363 -168.7543
552.000000 84.354 -168.3040
560.000000 84.351 -167.7489
570.000000 84.346 -167.0828
580.000000 84.341 -166.4330
590.000000 84.336 -165.7819
600.000000 84.332 -165.1070
608.000000 84.333 -164.5592
615.000000 84.334 -164.0968
622.000000 84.334 -163.6504
630.000000 84.335 -163.1432
640.000000 84.336 -162.5251
650.000000 84.339 -161.9167
660.000000 84.349 -161.1797
670.000000 84.358 -160.4559
680.000000 84.370 -159.7908
690.000000 84.383 -159.1327
700.000000 84.396 -158.4501
710.000000 84.414 -157.7724
720.000000 84.434 -157.1017
730.000000 84.454 -156.4161
740.000000 84.473 -155.7050
750.000000 84.497 -154.9954
762.000000 84.536 -154.2051
775.000000 84.579 -153.3531
788.000000 84.624 -152.5037
800.000000 84.670 -151.6996
812.000000 84.721 -150.8964
825.000000 84.781 -150.0594
838.000000 84.841 -149.2728
850.000000 84.900 -148.5378
862.000000 84.964 -147.7481
875.000000 85.039 -146.9294
885.000000 85.100 -146.3329
900.000000 85.196 -145.4732
912.000000 85.273 -144.8027
925.000000 85.361 -144.1026
938.000000 85.455 -143.4319
950.000000 85.543 -142.8362
962.000000 85.627 -142.2783
975.000000 85.720 -141.6943
988.000000 85.817 -141.1401
1000.000000 85.909 -140.6617
1015.000000 86.024 -140.0939
1030.000000 86.134 -139.5721
1044.000000 86.233 -139.1184
1060.000000 86.350 -138.5816
1075.000000 86.467 -138.0792
1090.000000 86.590 -137.6436
1106.000000 86.722 -137.2654
1120.000000 86.830 -137.0003
1138.000000 86.959 -136.6951
1150.000000 87.041 -136.5012
1172.000000 87.180 -136.1733
1180.000000 87.229 -136.0597
1206.000000 87.384 -135.6943
1220.000000 87.465 -135.5033
1241.000000 87.580 -135.2383
1250.000000 87.628 -135.1248
1265.000000 87.708 -134.9197
1280.000000 87.788 -134.7045
1315.000000 87.968 -134.1953
1320.000000 87.994 -134.1201
1340.000000 88.095 -133.8153
1360.000000 88.199 -133.5303
1380.000000 88.304 -133.2683
1400.000000 88.407 -133.0232
1430.000000 88.559 -132.6973
1450.000000 88.656 -132.4882
1475.000000 88.774 -132.2158
1500.000000 88.890 -131.9388
1525.000000 89.006 -131.6620
1550.000000 89.123 -131.3861
1575.000000 89.240 -131.1005
1600.000000 89.357 -130.8154
1625.000000 89.476 -130.5448
1650.000000 89.595 -130.2888
1675.000000 89.714 -130.0376
1700.000000 89.834 -129.7883
1725.000000 89.958 -129.5569
1750.000000 90.082 -129.3415
1775.000000 90.206 -129.1344
1800.000000 90.333 -128.9514
1825.000000 90.461 -128.7918
1850.000000 90.589 -128.6567
1875.000000 90.717 -128.5458
1900.000000 90.843 -128.4551
1925.000000 90.969 -128.3815
1950.000000 91.094 -128.3203
1975.000000 91.219 -128.2641
2000.000000 91.344 -128.2180
2030.000000 91.496 -128.1704
2060.000000 91.650 -128.1259
2090.000000 91.809 -128.0870
2120.000000 91.977 -128.0681
2140.000000 92.095 -128.0875
2180.000000 92.340 -128.2585
2200.000000 92.464 -128.4267
2240.000000 92.704 -128.9301
2270.000000 92.871 -129.4225
2300.000000 93.024 -129.9714
2330.000000 93.165 -130.5553
2360.000000 93.295 -131.1642
2400.000000 93.450 -131.9872
2430.000000 93.554 -132.5922
2470.000000 93.680 -133.3651
2500.000000 93.765 -133.9059
2540.000000 93.872 -134.5416
2580.000000 93.979 -135.0546
2620.000000 94.102 -135.4611
2650.000000 94.213 -135.7364
2690.000000 94.390 -136.1657
2720.000000 94.542 -136.6221
2760.000000 94.755 -137.5048
2800.000000 94.957 -138.7190
2850.000000 95.166 -140.5986
2900.000000 95.310 -142.6834
2950.000000 95.393 -144.7869
3000.000000 95.431 -146.7895
3040.000000 95.438 -148.3042
3070.000000 95.433 -149.3968
3110.000000 95.416 -150.8047
3150.000000 95.386 -152.1614
3200.000000 95.331 -153.7824
3250.000000 95.256 -155.3086
3300.000000 95.165 -156.7310
3350.000000 95.063 -158.0307
3400.000000 94.954 -159.2122
3450.000000 94.841 -160.2902
3500.000000 94.728 -161.2831
3550.000000 94.614 -162.2119
3600.000000 94.500 -163.0965
3650.000000 94.383 -163.9435
3700.000000 94.265 -164.7481
3750.000000 94.144 -165.5206
3820.000000 93.971 -166.5591
3870.000000 93.841 -167.2719
3950.000000 93.622 -168.3337
4000.000000 93.480 -168.9369
4060.000000 93.305 -169.6009
4120.000000 93.128 -170.1981
4180.000000 92.948 -170.7363
4250.000000 92.735 -171.3078
4310.000000 92.550 -171.7555
4370.000000 92.362 -172.1566
4440.000000 92.139 -172.5598
4500.000000 91.945 -172.8466
4550.000000 91.781 -173.0480
4620.000000 91.548 -173.2710
4680.000000 91.346 -173.4054
4750.000000 91.108 -173.4962
4820.000000 90.867 -173.5074
4870.000000 90.694 -173.4651
4940.000000 90.452 -173.3308
5000.000000 90.244 -173.1426
5080.000000 89.967 -172.7934
5150.000000 89.726 -172.3970
5220.000000 89.489 -171.9010
5300.000000 89.225 -171.2142
5380.000000 88.971 -170.4190
5450.000000 88.757 -169.6396
5520.000000 88.552 -168.7878
5600.000000 88.333 -167.7352
5700.000000 88.079 -166.3144
5800.000000 87.851 -164.7862
5900.000000 87.648 -163.1581
6000.000000 87.473 -161.4566
6080.000000 87.356 -160.0496
6150.000000 87.271 -158.7948
6220.000000 87.204 -157.5263
6300.000000 87.153 -156.0804
6400.000000 87.128 -154.3326
6500.000000 87.141 -152.6835
6600.000000 87.187 -151.1624
6700.000000 87.263 -149.8015
6800.000000 87.362 -148.6412
6900.000000 87.480 -147.6553
7000.000000 87.610 -146.7704
7100.000000 87.757 -145.9118
7200.000000 87.942 -145.0306
7300.000000 88.195 -144.1590
7400.000000 88.544 -143.4609
7500.000000 89.006 -143.2207
7620.000000 89.694 -144.0217
7750.000000 90.545 -146.8952
7880.000000 91.373 -152.5455
8000.000000 91.936 -160.5294
8120.000000 92.116 -170.6601
8250.000000 91.746 177.6179
8380.000000 90.817 167.2702
8500.000000 89.614 160.1248
8620.000000 88.253 155.4435
8750.000000 86.757 152.7053
8850.000000 85.653 151.8648
9000.000000 84.113 152.0675
9120.000000 82.989 153.1467
9250.000000 81.876 154.9929
9380.000000 80.863 157.4000
9500.000000 80.018 160.0248
9620.000000 79.259 162.9833
9750.000000 78.539 166.4861
9880.000000 77.940 170.1113
10000.000000 77.492 173.3051
10150.000000 77.030 176.7737
10300.000000 76.590 179.6776
10440.000000 76.141 -177.7390
10600.000000 75.589 -174.4673
10750.000000 75.070 -170.8154
10900.000000 74.581 -166.4649
11060.000000 74.127 -160.9622
11200.000000 73.835 -155.2277
11380.000000 73.746 -146.3435
11500.000000 74.010 -139.7129
11720.000000 75.443 -128.5217
11800.000000 76.221 -125.7390
12060.000000 78.866 -124.6446
12200.000000 79.990 -128.4784
12410.000000 81.131 -136.6115
12500.000000 81.472 -140.2105
12650.000000 81.939 -145.9554
12800.000000 82.354 -151.4567
13150.000000 83.318 -165.1562
13200.000000 83.452 -167.3920
13400.000000 83.926 -177.3167
13600.000000 84.224 171.2402
13800.000000 84.261 158.8364
14000.000000 84.008 146.3326
14300.000000 83.231 128.9175
14500.000000 82.593 118.5792
14750.000000 81.818 106.7686
15000.000000 81.194 95.4532
15250.000000 80.775 83.6936
15500.000000 80.542 70.5575
15750.000000 80.410 55.1626
16000.000000 80.209 36.9586
16250.000000 79.737 16.2830
16500.000000 78.868 -5.5521
16750.000000 77.614 -27.0465
17000.000000 76.103 -47.2377
17250.000000 74.503 -66.0602
17500.000000 72.947 -84.0257
17750.000000 71.525 -101.7737
18000.000000 70.294 -119.9408
18250.000000 69.286 -139.1999
18500.000000 68.520 -160.4543
18750.000000 67.896 175.0286
19000.000000 67.122 148.1100
19250.000000 66.452 120.3892
