* Measurement data measured by REW V5.20.9
* Source: Headset (USB-C to 3.5mm Headphone Jack Adapter), MICROPHONE (Master Volume), L, volume: 0.260. Timing signal peak level -23.8 dBFS, measurement signal peak level -23.7 dBFS
* Format: 256k Log Swept Sine, 1 sweep at -12.0 dBFS using an acoustic timing reference
* Dated: 18/02/2024 2:33:29 PM
* REW Settings:
*  C-weighting compensation: Off
*  Target level: 75.0 dB
* Note: ; Delay -0.0256 ms (-8.8 mm, -0.35 in) using estimated IR delay relative to Acoustic reference on SPEAKER L with no timing offset
* Measurement: Trio 1111 L
* Smoothing: 1/24 octave
* Frequency Step: 1/48 octave
* Start Frequency: 1.000 Hz
*
* Freq(Hz) SPL(dB) Phase(degrees)
1.000000 39.896 136.0434
1.015000 39.973 134.9781
1.030000 40.054 133.9231
1.044000 40.131 132.9500
1.060000 40.224 131.8545
1.075000 40.314 130.8464
1.090000 40.408 129.8592
1.106000 40.511 128.8297
1.120000 40.606 127.9350
1.138000 40.733 126.7889
1.150000 40.820 126.0274
1.172000 40.987 124.6370
1.180000 41.049 124.1331
1.206000 41.258 122.5023
1.220000 41.374 121.6283
1.241000 41.553 120.3229
1.250000 41.631 119.7655
1.265000 41.764 118.8393
1.280000 41.899 117.9165
1.315000 42.221 115.7770
1.320000 42.268 115.4729
1.340000 42.458 114.2605
1.360000 42.650 113.0544
1.380000 42.845 111.8547
1.400000 43.041 110.6614
1.430000 43.338 108.8836
1.450000 43.538 107.7065
1.475000 43.789 106.2432
1.500000 44.046 104.7797
1.525000 44.311 103.3161
1.550000 44.582 101.8553
1.575000 44.858 100.4002
1.600000 45.139 98.9536
1.625000 45.424 97.5184
1.650000 45.711 96.0974
1.675000 46.000 94.6936
1.700000 46.290 93.3097
1.725000 46.581 91.9487
1.750000 46.870 90.6134
1.775000 47.157 89.3067
1.800000 47.442 88.0314
1.825000 47.723 86.7904
1.850000 48.001 85.5861
1.875000 48.280 84.4170
1.900000 48.560 83.2806
1.925000 48.840 82.1739
1.950000 49.121 81.0942
1.975000 49.401 80.0387
2.000000 49.680 79.0047
2.030000 50.014 77.7882
2.060000 50.346 76.5939
2.090000 50.676 75.4168
2.120000 51.001 74.2522
2.140000 51.217 73.4804
2.180000 51.641 71.9413
2.200000 51.850 71.1713
2.240000 52.263 69.6490
2.270000 52.570 68.5281
2.300000 52.874 67.4240
2.330000 53.175 66.3355
2.360000 53.473 65.2614
2.400000 53.865 63.8498
2.430000 54.156 62.8051
2.470000 54.538 61.4287
2.500000 54.820 60.4072
2.540000 55.191 59.0578
2.580000 55.555 57.7211
2.620000 55.912 56.4039
2.650000 56.176 55.4294
2.690000 56.523 54.1470
2.720000 56.779 53.1972
2.760000 57.115 51.9457
2.800000 57.445 50.7104
2.850000 57.849 49.1869
2.900000 58.245 47.6844
2.950000 58.633 46.2015
3.000000 59.011 44.7456
3.040000 59.307 43.5998
3.070000 59.525 42.7505
3.110000 59.810 41.6302
3.150000 60.091 40.5221
3.200000 60.435 39.1517
3.250000 60.771 37.7947
3.300000 61.100 36.4479
3.350000 61.422 35.1111
3.400000 61.736 33.7868
3.450000 62.041 32.4769
3.500000 62.340 31.1833
3.550000 62.632 29.9078
3.600000 62.917 28.6522
3.650000 63.197 27.4183
3.700000 63.472 26.2081
3.750000 63.739 25.0211
3.820000 64.102 23.3942
3.870000 64.354 22.2540
3.950000 64.747 20.4615
4.000000 64.987 19.3576
4.060000 65.269 18.0468
4.120000 65.543 16.7540
4.180000 65.809 15.4811
4.250000 66.111 14.0223
4.310000 66.364 12.7959
4.370000 66.611 11.5927
4.440000 66.894 10.2205
4.500000 67.129 9.0724
4.550000 67.321 8.1336
4.620000 67.584 6.8434
4.680000 67.803 5.7569
4.750000 68.055 4.5081
4.820000 68.301 3.2790
4.870000 68.472 2.4157
4.940000 68.707 1.2268
5.000000 68.904 0.2255
5.080000 69.162 -1.0851
5.150000 69.382 -2.2095
5.220000 69.597 -3.3113
5.300000 69.836 -4.5435
5.380000 70.070 -5.7491
5.450000 70.270 -6.7840
5.520000 70.466 -7.8015
5.600000 70.685 -8.9415
5.700000 70.951 -10.3320
5.800000 71.209 -11.6848
5.900000 71.461 -13.0006
6.000000 71.706 -14.2790
6.080000 71.897 -15.2749
6.150000 72.061 -16.1269
6.220000 72.223 -16.9612
6.300000 72.405 -17.8914
6.400000 72.628 -19.0193
6.500000 72.847 -20.1132
6.600000 73.064 -21.1778
6.700000 73.277 -22.2094
6.800000 73.488 -23.2091
6.900000 73.696 -24.1855
7.000000 73.905 -25.1451
7.100000 74.112 -26.0791
7.200000 74.317 -26.9954
7.300000 74.522 -27.9061
7.400000 74.726 -28.8157
7.500000 74.929 -29.7166
7.620000 75.172 -30.7978
7.750000 75.431 -31.9839
7.880000 75.687 -33.1801
8.000000 75.920 -34.2955
8.120000 76.146 -35.4264
8.250000 76.385 -36.6701
8.380000 76.617 -37.9222
8.500000 76.822 -39.0805
8.620000 77.019 -40.2468
8.750000 77.224 -41.5010
8.850000 77.375 -42.4501
9.000000 77.590 -43.8599
9.120000 77.754 -44.9588
9.250000 77.924 -46.1078
9.380000 78.086 -47.2205
9.500000 78.231 -48.2080
9.620000 78.372 -49.1516
9.750000 78.520 -50.1281
9.880000 78.667 -51.0641
10.000000 78.803 -51.8903
10.150000 78.970 -52.8755
10.300000 79.139 -53.8330
10.440000 79.298 -54.6968
10.600000 79.480 -55.6686
10.750000 79.652 -56.5808
10.900000 79.824 -57.4905
11.060000 80.004 -58.4746
11.200000 80.161 -59.3467
11.380000 80.356 -60.4788
11.500000 80.483 -61.2425
11.720000 80.706 -62.6467
11.800000 80.783 -63.1550
12.060000 81.025 -64.7967
12.200000 81.148 -65.6610
12.410000 81.324 -66.9318
12.500000 81.397 -67.4640
12.650000 81.516 -68.3343
12.800000 81.632 -69.1870
13.150000 81.893 -71.1130
13.200000 81.930 -71.3833
13.400000 82.073 -72.4521
13.600000 82.212 -73.5096
13.800000 82.347 -74.5593
14.000000 82.478 -75.6015
14.300000 82.663 -77.1488
14.500000 82.780 -78.1642
14.750000 82.918 -79.4044
15.000000 83.049 -80.6064
15.250000 83.175 -81.7599
15.500000 83.298 -82.8653
15.750000 83.421 -83.9264
16.000000 83.546 -84.9542
16.250000 83.675 -85.9736
16.500000 83.808 -87.0016
16.750000 83.943 -88.0628
17.000000 84.076 -89.1711
17.250000 84.202 -90.3222
17.500000 84.318 -91.5086
17.750000 84.421 -92.6893
18.000000 84.511 -93.8335
18.250000 84.590 -94.9070
18.500000 84.665 -95.8778
18.750000 84.741 -96.7523
19.000000 84.823 -97.5376
19.250000 84.918 -98.2809
19.500000 85.023 -99.0239
19.750000 85.137 -99.7990
20.000000 85.254 -100.6404
20.299999 85.387 -101.7261
20.600000 85.507 -102.8639
20.900000 85.611 -104.0008
21.200001 85.698 -105.0793
21.400000 85.752 -105.7481
21.799999 85.856 -106.9737
22.000000 85.910 -107.5443
22.400000 86.023 -108.6507
22.700001 86.110 -109.4877
23.000000 86.196 -110.3504
23.299999 86.276 -111.2330
23.600000 86.348 -112.1195
24.000000 86.434 -113.2762
24.299999 86.492 -114.1044
24.700001 86.568 -115.1507
25.000000 86.628 -115.9081
25.400000 86.713 -116.9235
25.799999 86.801 -117.9940
26.200001 86.881 -119.1259
26.500000 86.930 -119.9777
26.900000 86.985 -121.0468
27.200001 87.025 -121.7657
27.600000 87.089 -122.6343
28.000000 87.174 -123.5119
28.500000 87.285 -124.7897
29.000000 87.357 -126.1937
29.500000 87.380 -127.3651
30.000000 87.409 -128.0604
30.400000 87.478 -128.4419
30.700001 87.559 -128.8086
31.100000 87.673 -129.5639
31.500000 87.755 -130.5627
32.000000 87.788 -131.7471
32.500000 87.793 -132.4512
33.000000 87.860 -132.8333
33.500000 88.003 -133.5000
34.000000 88.141 -134.8405
34.500000 88.190 -136.5893
35.000000 88.140 -138.1732
35.500000 88.050 -139.2164
36.000000 87.989 -139.7946
36.500000 87.986 -140.2062
37.000000 88.031 -140.7041
37.500000 88.102 -141.3803
38.200001 88.207 -142.6098
38.700001 88.270 -143.6065
39.500000 88.344 -145.1793
40.000000 88.382 -146.0953
40.599998 88.421 -147.1341
41.200001 88.453 -148.0900
41.799999 88.482 -148.9475
42.500000 88.524 -149.9056
43.099998 88.558 -150.7843
43.700001 88.579 -151.7054
44.400002 88.586 -152.7498
45.000000 88.588 -153.5926
45.500000 88.590 -154.2775
46.200001 88.597 -155.2336
46.799999 88.608 -156.0524
47.500000 88.630 -157.0355
48.200001 88.655 -158.1166
48.700001 88.661 -158.9380
49.400002 88.644 -160.0099
50.000000 88.622 -160.7329
50.799999 88.615 -161.4970
51.500000 88.631 -162.2000
52.200001 88.642 -162.9892
53.000000 88.638 -163.8879
53.799999 88.627 -164.7434
54.500000 88.615 -165.4778
55.200001 88.602 -166.2074
56.000000 88.587 -167.0506
57.000000 88.568 -168.1101
58.000000 88.552 -169.1477
59.000000 88.539 -170.2160
60.000000 88.514 -171.2693
60.799999 88.489 -172.0329
61.500000 88.469 -172.6720
62.200001 88.448 -173.3184
63.000000 88.416 -174.0432
64.000000 88.372 -174.8813
65.000000 88.333 -175.7016
66.000000 88.297 -176.5637
67.000000 88.256 -177.4647
68.000000 88.206 -178.3352
69.000000 88.157 -179.1265
70.000000 88.115 -179.9148
71.000000 88.065 179.2872
72.000000 88.006 178.5232
73.000000 87.939 177.8065
74.000000 87.871 177.1569
75.000000 87.810 176.5386
76.199997 87.744 175.7888
77.500000 87.677 175.0129
78.800003 87.616 174.2908
80.000000 87.558 173.6535
81.199997 87.502 173.0546
82.500000 87.441 172.3126
83.800003 87.366 171.4846
85.000000 87.294 170.7350
86.199997 87.228 169.9861
87.500000 87.150 169.1629
88.500000 87.077 168.5892
90.000000 86.945 167.8391
91.199997 86.817 167.3574
92.500000 86.685 166.9646
93.800003 86.579 166.5621
95.000000 86.492 166.2557
96.199997 86.424 166.2364
97.500000 86.391 166.5749
98.800003 86.429 167.1006
100.000000 86.475 166.8204
101.500000 86.273 166.0859
103.000000 85.992 166.5049
104.400002 85.866 166.9772
106.000000 85.853 166.9830
107.500000 85.909 166.6148
109.000000 85.992 166.0468
110.599998 86.044 165.1993
112.000000 86.028 164.3823
113.800003 85.951 163.3267
115.000000 85.884 162.6152
117.199997 85.751 161.4100
118.000000 85.700 161.0345
120.599998 85.519 160.0384
122.000000 85.411 159.5938
124.099998 85.247 158.9703
125.000000 85.178 158.7206
126.500000 85.064 158.3529
128.000000 84.951 158.0515
131.500000 84.682 157.4773
132.000000 84.643 157.3990
134.000000 84.491 157.1098
136.000000 84.346 156.9270
138.000000 84.207 156.8143
140.000000 84.064 156.7134
143.000000 83.848 156.5783
145.000000 83.713 156.5422
147.500000 83.552 156.6359
150.000000 83.397 156.7749
152.500000 83.226 156.8148
155.000000 83.050 156.8980
157.500000 82.888 157.0770
160.000000 82.735 157.3503
162.500000 82.585 157.6466
165.000000 82.437 157.9480
167.500000 82.294 158.2953
170.000000 82.158 158.6919
172.500000 82.024 159.1063
175.000000 81.892 159.5439
177.500000 81.765 160.0212
180.000000 81.641 160.5275
182.500000 81.522 161.0603
185.000000 81.407 161.6259
187.500000 81.295 162.2285
190.000000 81.189 162.8671
192.500000 81.091 163.5325
195.000000 80.997 164.2360
197.500000 80.907 165.0131
200.000000 80.826 165.8463
203.000000 80.742 166.8790
206.000000 80.684 167.9783
209.000000 80.661 169.0750
212.000000 80.662 169.9617
214.000000 80.664 170.4091
218.000000 80.659 171.1406
220.000000 80.648 171.4896
224.000000 80.613 172.1931
227.000000 80.581 172.7398
230.000000 80.551 173.3146
233.000000 80.527 173.8928
236.000000 80.509 174.4673
240.000000 80.486 175.2726
243.000000 80.466 175.8876
247.000000 80.449 176.7176
250.000000 80.448 177.3549
254.000000 80.450 178.1011
258.000000 80.448 178.7562
262.000000 80.454 179.4377
265.000000 80.462 179.9548
269.000000 80.478 -179.3885
272.000000 80.491 -178.9218
276.000000 80.507 -178.3141
280.000000 80.526 -177.7302
285.000000 80.557 -177.0398
290.000000 80.586 -176.3822
295.000000 80.618 -175.7676
300.000000 80.652 -175.1978
304.000000 80.679 -174.7626
307.000000 80.698 -174.4427
311.000000 80.724 -174.0352
315.000000 80.754 -173.6545
320.000000 80.792 -173.2110
325.000000 80.827 -172.7942
330.000000 80.860 -172.3903
335.000000 80.893 -171.9942
340.000000 80.925 -171.6143
345.000000 80.955 -171.2734
350.000000 80.984 -170.9676
355.000000 81.015 -170.6452
360.000000 81.047 -170.3214
365.000000 81.076 -170.0244
370.000000 81.103 -169.7419
375.000000 81.129 -169.4658
382.000000 81.165 -169.1084
387.000000 81.189 -168.8716
395.000000 81.225 -168.5003
400.000000 81.247 -168.2736
406.000000 81.270 -168.0054
412.000000 81.293 -167.7415
418.000000 81.313 -167.4908
425.000000 81.336 -167.2118
431.000000 81.355 -166.9678
437.000000 81.373 -166.7302
444.000000 81.390 -166.4665
450.000000 81.404 -166.2454
455.000000 81.418 -166.0413
462.000000 81.438 -165.7487
468.000000 81.453 -165.5127
475.000000 81.467 -165.2451
482.000000 81.480 -164.9754
487.000000 81.489 -164.7807
494.000000 81.500 -164.5109
500.000000 81.510 -164.2840
508.000000 81.522 -163.9816
515.000000 81.532 -163.7082
522.000000 81.541 -163.4304
530.000000 81.552 -163.1151
538.000000 81.562 -162.8033
545.000000 81.570 -162.5342
552.000000 81.579 -162.2542
560.000000 81.586 -161.9115
570.000000 81.596 -161.4811
580.000000 81.606 -161.0485
590.000000 81.618 -160.6145
600.000000 81.629 -160.1702
608.000000 81.638 -159.8086
615.000000 81.646 -159.4926
622.000000 81.654 -159.1745
630.000000 81.665 -158.8018
640.000000 81.678 -158.3167
650.000000 81.690 -157.8221
660.000000 81.706 -157.3458
670.000000 81.726 -156.8638
680.000000 81.746 -156.3654
690.000000 81.767 -155.8616
700.000000 81.790 -155.3595
710.000000 81.816 -154.8540
720.000000 81.844 -154.3452
730.000000 81.874 -153.8346
740.000000 81.907 -153.3249
750.000000 81.945 -152.8214
762.000000 81.998 -152.2395
775.000000 82.063 -151.6503
788.000000 82.140 -151.1485
800.000000 82.220 -150.8580
812.000000 82.287 -150.9124
825.000000 82.261 -151.3620
838.000000 82.063 -151.1186
850.000000 81.916 -149.4040
862.000000 81.967 -147.4027
875.000000 82.125 -145.9560
885.000000 82.246 -145.2349
900.000000 82.408 -144.4135
912.000000 82.527 -143.8686
925.000000 82.650 -143.3600
938.000000 82.771 -142.9315
950.000000 82.877 -142.6209
962.000000 82.974 -142.4116
975.000000 83.060 -142.2809
988.000000 83.115 -142.1508
1000.000000 83.142 -141.8905
1015.000000 83.175 -141.2552
1030.000000 83.244 -140.4096
1044.000000 83.346 -139.6474
1060.000000 83.484 -138.9364
1075.000000 83.620 -138.4187
1090.000000 83.754 -138.0077
1106.000000 83.893 -137.6570
1120.000000 84.010 -137.4055
1138.000000 84.155 -137.1406
1150.000000 84.248 -136.9916
1172.000000 84.411 -136.7562
1180.000000 84.468 -136.6835
1206.000000 84.645 -136.4854
1220.000000 84.735 -136.3950
1241.000000 84.865 -136.2831
1250.000000 84.919 -136.2417
1265.000000 85.005 -136.1744
1280.000000 85.088 -136.1095
1315.000000 85.273 -135.9658
1320.000000 85.298 -135.9451
1340.000000 85.397 -135.8590
1360.000000 85.492 -135.7672
1380.000000 85.585 -135.6741
1400.000000 85.675 -135.5781
1430.000000 85.807 -135.4210
1450.000000 85.893 -135.3019
1475.000000 85.999 -135.1473
1500.000000 86.104 -134.9874
1525.000000 86.209 -134.8194
1550.000000 86.312 -134.6413
1575.000000 86.417 -134.4565
1600.000000 86.522 -134.2706
1625.000000 86.628 -134.0809
1650.000000 86.735 -133.8888
1675.000000 86.843 -133.7008
1700.000000 86.953 -133.5148
1725.000000 87.064 -133.3320
1750.000000 87.176 -133.1566
1775.000000 87.291 -132.9913
1800.000000 87.408 -132.8355
1825.000000 87.526 -132.6864
1850.000000 87.645 -132.5471
1875.000000 87.766 -132.4221
1900.000000 87.888 -132.3149
1925.000000 88.013 -132.2222
1950.000000 88.138 -132.1434
1975.000000 88.265 -132.0846
2000.000000 88.394 -132.0499
2030.000000 88.550 -132.0361
2060.000000 88.708 -132.0492
2090.000000 88.868 -132.0945
2120.000000 89.029 -132.1772
2140.000000 89.137 -132.2545
2180.000000 89.353 -132.4559
2200.000000 89.462 -132.5799
2240.000000 89.679 -132.8794
2270.000000 89.843 -133.1529
2300.000000 90.006 -133.4700
2330.000000 90.169 -133.8312
2360.000000 90.331 -134.2388
2400.000000 90.546 -134.8594
2430.000000 90.705 -135.3803
2470.000000 90.913 -136.1485
2500.000000 91.065 -136.7849
2540.000000 91.262 -137.7111
2580.000000 91.451 -138.7207
2620.000000 91.630 -139.8084
2650.000000 91.758 -140.6756
2690.000000 91.920 -141.9011
2720.000000 92.033 -142.8680
2760.000000 92.173 -144.2157
2800.000000 92.298 -145.6283
2850.000000 92.433 -147.4732
2900.000000 92.541 -149.3880
2950.000000 92.619 -151.3489
3000.000000 92.666 -153.3264
3040.000000 92.682 -154.9013
3070.000000 92.681 -156.0649
3110.000000 92.664 -157.5793
3150.000000 92.630 -159.0398
3200.000000 92.566 -160.7740
3250.000000 92.483 -162.3969
3300.000000 92.384 -163.9087
3350.000000 92.270 -165.3104
3400.000000 92.141 -166.5934
3450.000000 92.001 -167.7459
3500.000000 91.853 -168.7588
3550.000000 91.700 -169.6335
3600.000000 91.546 -170.3790
3650.000000 91.392 -171.0010
3700.000000 91.241 -171.5106
3750.000000 91.093 -171.9209
3820.000000 90.896 -172.3477
3870.000000 90.763 -172.5645
3950.000000 90.564 -172.7621
4000.000000 90.451 -172.8066
4060.000000 90.329 -172.8131
4120.000000 90.220 -172.7878
4180.000000 90.124 -172.7457
4250.000000 90.023 -172.6877
4310.000000 89.946 -172.6367
4370.000000 89.877 -172.5934
4440.000000 89.804 -172.5547
4500.000000 89.747 -172.5381
4550.000000 89.704 -172.5393
4620.000000 89.648 -172.5691
4680.000000 89.603 -172.6309
4750.000000 89.551 -172.7592
4820.000000 89.493 -172.9366
4870.000000 89.446 -173.0755
4940.000000 89.370 -173.2496
5000.000000 89.298 -173.3514
5080.000000 89.198 -173.3914
5150.000000 89.114 -173.3323
5220.000000 89.040 -173.2024
5300.000000 88.967 -173.0133
5380.000000 88.908 -172.8235
5450.000000 88.865 -172.6759
5520.000000 88.828 -172.5556
5600.000000 88.789 -172.4550
5700.000000 88.742 -172.3783
5800.000000 88.696 -172.3387
5900.000000 88.650 -172.3182
6000.000000 88.601 -172.2869
6080.000000 88.563 -172.2402
6150.000000 88.531 -172.1834
6220.000000 88.501 -172.1110
6300.000000 88.470 -172.0067
6400.000000 88.436 -171.8456
6500.000000 88.408 -171.6544
6600.000000 88.390 -171.4309
6700.000000 88.384 -171.1681
6800.000000 88.389 -170.8637
6900.000000 88.411 -170.5189
7000.000000 88.454 -170.1319
7100.000000 88.525 -169.7176
7200.000000 88.628 -169.3187
7300.000000 88.767 -168.9970
7400.000000 88.940 -168.8001
7500.000000 89.146 -168.7507
7620.000000 89.439 -168.9160
7750.000000 89.819 -169.4414
7880.000000 90.273 -170.4669
8000.000000 90.759 -172.0587
8120.000000 91.299 -174.5252
8250.000000 91.905 -178.4938
8380.000000 92.467 175.8997
8500.000000 92.857 169.1514
8620.000000 93.031 161.0833
8750.000000 92.890 151.5288
8850.000000 92.528 144.2620
9000.000000 91.618 134.6103
9120.000000 90.663 128.5389
9250.000000 89.514 123.7490
9380.000000 88.340 120.6083
9500.000000 87.290 118.8817
9620.000000 86.296 118.0207
9750.000000 85.298 117.8293
9880.000000 84.383 118.2076
10000.000000 83.611 118.9254
10150.000000 82.736 120.1870
10300.000000 81.952 121.7664
10440.000000 81.299 123.4410
10600.000000 80.644 125.4918
10750.000000 80.111 127.4770
10900.000000 79.651 129.4581
11060.000000 79.238 131.5031
11200.000000 78.936 133.1895
11380.000000 78.620 135.1915
11500.000000 78.450 136.4199
11720.000000 78.220 138.4380
11800.000000 78.164 139.0864
12060.000000 78.086 140.7992
12200.000000 78.117 141.4016
12410.000000 78.266 141.6595
12500.000000 78.364 141.4442
12650.000000 78.559 140.5267
12800.000000 78.769 138.8061
13150.000000 79.113 131.7003
13200.000000 79.131 130.3990
13400.000000 79.099 124.7366
13600.000000 78.887 118.6915
13800.000000 78.499 112.7633
14000.000000 77.972 107.3723
14300.000000 77.050 100.7292
14500.000000 76.438 97.2527
14750.000000 75.774 93.6749
15000.000000 75.283 90.5128
15250.000000 75.011 87.2477
15500.000000 74.989 83.3254
15750.000000 75.235 78.0105
16000.000000 75.749 70.2575
16250.000000 76.426 58.5935
16500.000000 76.954 41.4930
16750.000000 76.867 19.1838
17000.000000 75.828 -4.7520
17250.000000 73.896 -25.7472
17500.000000 71.438 -42.0182
17750.000000 68.861 -54.4559
18000.000000 66.440 -64.7233
18250.000000 64.270 -74.0806
18500.000000 62.357 -83.5095
18750.000000 60.670 -93.8217
19000.000000 59.135 -105.6509
19250.000000 57.666 -119.4983
19500.000000 56.143 -135.3132
19750.000000 54.536 -151.1059
