* Measurement data measured by REW V5.20.9
* Source: Headset (USB-C to 3.5mm Headphone Jack Adapter), MICROPHONE (Master Volume), L, volume: 0.260. Timing signal peak level -25.2 dBFS, measurement signal peak level -25.1 dBFS
* Format: 256k Log Swept Sine, 1 sweep at -12.0 dBFS using an acoustic timing reference
* Dated: 18/02/2024 2:31:15 PM
* REW Settings:
*  C-weighting compensation: Off
*  Target level: 75.0 dB
* Note: ; Delay -0.0776 ms (-27 mm, -1.05 in) using estimated IR delay relative to Acoustic reference on SPEAKER L with no timing offset
* Measurement: Trio 0010 L
* Smoothing: 1/24 octave
* Frequency Step: 1/48 octave
* Start Frequency: 1.000 Hz
*
* Freq(Hz) SPL(dB) Phase(degrees)
1.000000 35.469 132.3286
1.015000 35.551 131.4002
1.030000 35.636 130.4858
1.044000 35.718 129.6471
1.060000 35.816 128.7087
1.075000 35.911 127.8512
1.090000 36.010 127.0177
1.106000 36.120 126.1565
1.120000 36.220 125.4191
1.138000 36.355 124.4895
1.150000 36.448 123.8805
1.172000 36.626 122.7842
1.180000 36.692 122.3915
1.206000 36.915 121.1348
1.220000 37.039 120.4691
1.241000 37.231 119.4824
1.250000 37.314 119.0633
1.265000 37.456 118.3690
1.280000 37.600 117.6791
1.315000 37.943 116.0803
1.320000 37.993 115.8526
1.340000 38.195 114.9418
1.360000 38.399 114.0294
1.380000 38.605 113.1128
1.400000 38.812 112.1895
1.430000 39.124 110.7868
1.450000 39.332 109.8359
1.475000 39.593 108.6260
1.500000 39.860 107.3958
1.525000 40.134 106.1496
1.550000 40.413 104.8911
1.575000 40.697 103.6241
1.600000 40.986 102.3521
1.625000 41.277 101.0790
1.650000 41.571 99.8084
1.675000 41.866 98.5439
1.700000 42.162 97.2893
1.725000 42.457 96.0482
1.750000 42.751 94.8244
1.775000 43.043 93.6216
1.800000 43.331 92.4433
1.825000 43.616 91.2933
1.850000 43.897 90.1722
1.875000 44.179 89.0732
1.900000 44.461 87.9944
1.925000 44.744 86.9342
1.950000 45.026 85.8907
1.975000 45.307 84.8623
2.000000 45.587 83.8473
2.030000 45.921 82.6446
2.060000 46.253 81.4557
2.090000 46.581 80.2778
2.120000 46.906 79.1079
2.140000 47.120 78.3309
2.180000 47.542 76.7803
2.200000 47.749 76.0048
2.240000 48.158 74.4611
2.270000 48.460 73.3128
2.300000 48.760 72.1731
2.330000 49.055 71.0426
2.360000 49.348 69.9217
2.400000 49.732 68.4430
2.430000 50.016 67.3464
2.470000 50.388 65.9017
2.500000 50.664 64.8320
2.540000 51.024 63.4249
2.580000 51.379 62.0405
2.620000 51.725 60.6760
2.650000 51.980 59.6655
2.690000 52.315 58.3356
2.720000 52.561 57.3515
2.760000 52.884 56.0573
2.800000 53.201 54.7842
2.850000 53.590 53.2228
2.900000 53.971 51.6955
2.950000 54.344 50.2037
3.000000 54.707 48.7524
3.040000 54.991 47.6189
3.070000 55.200 46.7833
3.110000 55.474 45.6870
3.150000 55.744 44.6088
3.200000 56.074 43.2836
3.250000 56.399 41.9792
3.300000 56.719 40.6915
3.350000 57.032 39.4228
3.400000 57.338 38.1769
3.450000 57.637 36.9540
3.500000 57.931 35.7544
3.550000 58.219 34.5782
3.600000 58.503 33.4257
3.650000 58.783 32.2970
3.700000 59.059 31.1957
3.750000 59.330 30.1269
3.820000 59.702 28.6753
3.870000 59.962 27.6629
3.950000 60.371 26.0702
4.000000 60.622 25.0830
4.060000 60.919 23.9008
4.120000 61.212 22.7323
4.180000 61.498 21.5789
4.250000 61.827 20.2509
4.310000 62.103 19.1267
4.370000 62.374 18.0144
4.440000 62.685 16.7323
4.500000 62.946 15.6501
4.550000 63.160 14.7584
4.620000 63.454 13.5227
4.680000 63.700 12.4726
4.750000 63.981 11.2544
4.820000 64.255 10.0405
4.870000 64.447 9.1771
4.940000 64.709 7.9767
5.000000 64.928 6.9583
5.080000 65.213 5.6205
5.150000 65.455 4.4724
5.220000 65.690 3.3400
5.300000 65.950 2.0655
5.380000 66.202 0.8170
5.450000 66.417 -0.2502
5.520000 66.627 -1.2911
5.600000 66.859 -2.4529
5.700000 67.138 -3.8627
5.800000 67.409 -5.2214
5.900000 67.674 -6.5242
6.000000 67.930 -7.7693
6.080000 68.130 -8.7280
6.150000 68.303 -9.5428
6.220000 68.474 -10.3379
6.300000 68.669 -11.2177
6.400000 68.908 -12.2715
6.500000 69.145 -13.2912
6.600000 69.380 -14.2947
6.700000 69.615 -15.2759
6.800000 69.849 -16.2334
6.900000 70.080 -17.1832
7.000000 70.309 -18.1387
7.100000 70.537 -19.0909
7.200000 70.762 -20.0426
7.300000 70.983 -21.0011
7.400000 71.200 -21.9720
7.500000 71.412 -22.9523
7.620000 71.661 -24.1336
7.750000 71.920 -25.4132
7.880000 72.168 -26.7000
8.000000 72.388 -27.8788
8.120000 72.599 -29.0352
8.250000 72.817 -30.2722
8.380000 73.025 -31.4785
8.500000 73.211 -32.5526
8.620000 73.390 -33.5940
8.750000 73.577 -34.6840
8.850000 73.720 -35.4928
9.000000 73.927 -36.6567
9.120000 74.091 -37.5564
9.250000 74.267 -38.5049
9.380000 74.442 -39.4223
9.500000 74.601 -40.2559
9.620000 74.761 -41.0830
9.750000 74.932 -41.9667
9.880000 75.101 -42.8472
10.000000 75.254 -43.6623
10.150000 75.443 -44.6790
10.300000 75.627 -45.6911
10.440000 75.793 -46.6345
10.600000 75.978 -47.7000
10.750000 76.145 -48.6797
10.900000 76.306 -49.6415
11.060000 76.474 -50.6352
11.200000 76.617 -51.4779
11.380000 76.797 -52.5273
11.500000 76.916 -53.2030
11.720000 77.133 -54.4067
11.800000 77.212 -54.8365
12.060000 77.467 -56.2071
12.200000 77.604 -56.9434
12.410000 77.807 -58.0449
12.500000 77.892 -58.5191
12.650000 78.032 -59.3130
12.800000 78.169 -60.1048
13.150000 78.472 -61.9313
13.200000 78.514 -62.1853
13.400000 78.675 -63.1844
13.600000 78.832 -64.1436
13.800000 78.985 -65.0558
14.000000 79.138 -65.9314
14.300000 79.368 -67.1886
14.500000 79.524 -68.0156
14.750000 79.719 -69.0696
15.000000 79.913 -70.1612
15.250000 80.097 -71.3035
15.500000 80.267 -72.4705
15.750000 80.422 -73.6399
16.000000 80.559 -74.7663
16.250000 80.685 -75.8131
16.500000 80.803 -76.7693
16.750000 80.921 -77.6283
17.000000 81.045 -78.4284
17.250000 81.176 -79.2007
17.500000 81.315 -79.9868
17.750000 81.456 -80.8246
18.000000 81.594 -81.7155
18.250000 81.725 -82.6595
18.500000 81.845 -83.6201
18.750000 81.954 -84.5687
19.000000 82.053 -85.4785
19.250000 82.149 -86.3256
19.500000 82.245 -87.1183
19.750000 82.344 -87.8647
20.000000 82.450 -88.5968
20.299999 82.582 -89.4898
20.600000 82.717 -90.4213
20.900000 82.847 -91.3938
21.200001 82.968 -92.3813
21.400000 83.043 -93.0232
21.799999 83.184 -94.2331
22.000000 83.254 -94.7927
22.400000 83.397 -95.8364
22.700001 83.511 -96.5960
23.000000 83.627 -97.3798
23.299999 83.738 -98.1995
23.600000 83.840 -99.0354
24.000000 83.958 -100.1147
24.299999 84.036 -100.8512
24.700001 84.139 -101.7268
25.000000 84.221 -102.3463
25.400000 84.337 -103.2062
25.799999 84.447 -104.1576
26.200001 84.540 -105.1598
26.500000 84.599 -105.8923
26.900000 84.674 -106.8158
27.200001 84.735 -107.5013
27.600000 84.822 -108.4869
28.000000 84.903 -109.6011
28.500000 84.977 -111.0534
29.000000 85.040 -112.3476
29.500000 85.135 -113.5412
30.000000 85.259 -114.9685
30.400000 85.334 -116.3155
30.700001 85.361 -117.2877
31.100000 85.378 -118.2411
31.500000 85.432 -118.7302
32.000000 85.636 -119.2218
32.500000 85.934 -120.5875
33.000000 86.126 -123.0939
33.500000 86.082 -125.6566
34.000000 85.871 -126.7549
34.500000 85.740 -126.0886
35.000000 85.852 -124.8882
35.500000 86.117 -124.6029
36.000000 86.335 -125.3804
36.500000 86.435 -126.3925
37.000000 86.484 -127.0131
37.500000 86.559 -127.3943
38.200001 86.699 -128.2785
38.700001 86.765 -129.1852
39.500000 86.813 -130.4923
40.000000 86.850 -131.2088
40.599998 86.905 -132.1381
41.200001 86.953 -133.1239
41.799999 87.001 -134.0686
42.500000 87.068 -135.1486
43.099998 87.125 -136.1074
43.700001 87.172 -137.0341
44.400002 87.222 -137.9944
45.000000 87.271 -138.7545
45.500000 87.314 -139.4039
46.200001 87.362 -140.3377
46.799999 87.394 -141.1018
47.500000 87.431 -141.9683
48.200001 87.465 -142.9050
48.700001 87.476 -143.5816
49.400002 87.486 -144.3999
50.000000 87.512 -145.0139
50.799999 87.573 -145.9790
51.500000 87.610 -146.9715
52.200001 87.628 -147.8796
53.000000 87.655 -148.7786
53.799999 87.688 -149.6889
54.500000 87.709 -150.4789
55.200001 87.727 -151.2260
56.000000 87.749 -152.0917
57.000000 87.763 -153.1976
58.000000 87.771 -154.2395
59.000000 87.783 -155.2751
60.000000 87.791 -156.2763
60.799999 87.803 -157.0232
61.500000 87.817 -157.6918
62.200001 87.826 -158.3744
63.000000 87.829 -159.1364
64.000000 87.819 -160.1190
65.000000 87.771 -160.9413
66.000000 87.751 -161.4356
67.000000 87.788 -162.1751
68.000000 87.802 -163.2553
69.000000 87.791 -164.3123
70.000000 87.773 -165.3031
71.000000 87.753 -166.1895
72.000000 87.740 -166.9855
73.000000 87.729 -167.7459
74.000000 87.716 -168.4957
75.000000 87.695 -169.2244
76.199997 87.669 -170.0572
77.500000 87.641 -171.0131
78.800003 87.603 -171.9508
80.000000 87.576 -172.7578
81.199997 87.550 -173.6048
82.500000 87.507 -174.4725
83.800003 87.464 -175.2433
85.000000 87.426 -175.9920
86.199997 87.379 -176.7762
87.500000 87.320 -177.5838
88.500000 87.278 -178.1336
90.000000 87.229 -178.9514
91.199997 87.183 -179.6489
92.500000 87.114 179.6149
93.800003 87.034 178.9529
95.000000 86.969 178.3707
96.199997 86.918 177.7231
97.500000 86.868 176.9383
98.800003 86.814 176.0742
100.000000 86.723 175.3442
101.500000 86.582 174.9919
103.000000 86.485 174.8389
104.400002 86.392 174.4713
106.000000 86.248 173.9672
107.500000 86.102 173.6561
109.000000 85.963 173.5757
110.599998 85.839 173.9038
112.000000 85.777 174.4962
113.800003 85.780 175.3303
115.000000 85.831 175.7264
117.199997 85.986 175.7121
118.000000 86.044 175.4504
120.599998 86.173 173.9625
122.000000 86.189 172.9969
124.099998 86.154 171.5889
125.000000 86.122 171.0342
126.500000 86.055 170.2046
128.000000 85.978 169.4788
131.500000 85.781 168.0461
132.000000 85.752 167.8632
134.000000 85.635 167.1773
136.000000 85.522 166.6176
138.000000 85.418 166.1238
140.000000 85.310 165.6790
143.000000 85.142 165.1112
145.000000 85.028 164.7903
147.500000 84.879 164.4694
150.000000 84.741 164.2075
152.500000 84.616 163.8413
155.000000 84.486 163.5100
157.500000 84.353 163.2821
160.000000 84.219 163.1057
162.500000 84.091 162.9442
165.000000 83.969 162.8191
167.500000 83.850 162.7321
170.000000 83.726 162.6692
172.500000 83.603 162.6453
175.000000 83.484 162.6553
177.500000 83.367 162.6865
180.000000 83.250 162.7430
182.500000 83.136 162.8322
185.000000 83.024 162.9494
187.500000 82.916 163.0862
190.000000 82.810 163.2347
192.500000 82.705 163.3896
195.000000 82.603 163.5554
197.500000 82.505 163.7463
200.000000 82.411 163.9705
203.000000 82.297 164.2696
206.000000 82.180 164.6049
209.000000 82.066 164.9607
212.000000 81.957 165.3307
214.000000 81.888 165.5884
218.000000 81.757 166.1561
220.000000 81.696 166.4731
224.000000 81.585 167.1582
227.000000 81.509 167.6834
230.000000 81.442 168.1841
233.000000 81.383 168.6673
236.000000 81.324 169.1228
240.000000 81.240 169.6787
243.000000 81.179 170.1079
247.000000 81.111 170.7099
250.000000 81.063 171.1727
254.000000 81.010 171.8016
258.000000 80.963 172.3469
262.000000 80.910 172.8097
265.000000 80.873 173.1476
269.000000 80.828 173.6207
272.000000 80.792 174.0178
276.000000 80.742 174.5636
280.000000 80.693 175.0874
285.000000 80.635 175.7504
290.000000 80.584 176.4515
295.000000 80.538 177.1244
300.000000 80.497 177.7782
304.000000 80.467 178.2924
307.000000 80.445 178.6738
311.000000 80.417 179.1738
315.000000 80.392 179.6649
320.000000 80.365 -179.7182
325.000000 80.340 -179.1118
330.000000 80.318 -178.5236
335.000000 80.295 -177.9499
340.000000 80.275 -177.3926
345.000000 80.261 -176.8489
350.000000 80.249 -176.3062
355.000000 80.235 -175.7497
360.000000 80.220 -175.2139
365.000000 80.208 -174.6973
370.000000 80.197 -174.1891
375.000000 80.188 -173.6870
382.000000 80.177 -173.0128
387.000000 80.169 -172.5383
395.000000 80.156 -171.7878
400.000000 80.150 -171.3355
406.000000 80.142 -170.7948
412.000000 80.136 -170.2560
418.000000 80.130 -169.7302
425.000000 80.125 -169.1382
431.000000 80.119 -168.6352
437.000000 80.112 -168.1205
444.000000 80.107 -167.5067
450.000000 80.103 -166.9884
455.000000 80.100 -166.6002
462.000000 80.096 -166.0717
468.000000 80.092 -165.6027
475.000000 80.088 -165.0497
482.000000 80.085 -164.4973
487.000000 80.082 -164.1041
494.000000 80.078 -163.5617
500.000000 80.075 -163.1012
508.000000 80.072 -162.4853
515.000000 80.069 -161.9508
522.000000 80.068 -161.4170
530.000000 80.066 -160.8077
538.000000 80.065 -160.1975
545.000000 80.066 -159.6664
552.000000 80.065 -159.1357
560.000000 80.060 -158.5225
570.000000 80.056 -157.7544
580.000000 80.056 -156.9897
590.000000 80.058 -156.2235
600.000000 80.060 -155.4535
608.000000 80.063 -154.8288
615.000000 80.067 -154.2827
622.000000 80.069 -153.7404
630.000000 80.073 -153.1246
640.000000 80.082 -152.3572
650.000000 80.093 -151.5848
660.000000 80.101 -150.7880
670.000000 80.112 -149.9908
680.000000 80.126 -149.1978
690.000000 80.144 -148.4028
700.000000 80.164 -147.6028
710.000000 80.185 -146.7995
720.000000 80.209 -146.0017
730.000000 80.237 -145.2069
740.000000 80.268 -144.4220
750.000000 80.302 -143.6501
762.000000 80.352 -142.7452
775.000000 80.416 -141.8036
788.000000 80.491 -140.9514
800.000000 80.568 -140.3454
812.000000 80.636 -140.0708
825.000000 80.617 -140.1635
838.000000 80.426 -139.6508
850.000000 80.272 -137.7301
862.000000 80.311 -135.4655
875.000000 80.464 -133.6776
885.000000 80.585 -132.6878
900.000000 80.747 -131.4870
912.000000 80.865 -130.6471
925.000000 80.989 -129.8228
938.000000 81.110 -129.0883
950.000000 81.217 -128.4969
962.000000 81.317 -128.0023
975.000000 81.405 -127.5567
988.000000 81.463 -127.1257
1000.000000 81.492 -126.6087
1015.000000 81.526 -125.6703
1030.000000 81.592 -124.5107
1044.000000 81.690 -123.4381
1060.000000 81.828 -122.3647
1075.000000 81.965 -121.5150
1090.000000 82.101 -120.7750
1106.000000 82.242 -120.0649
1120.000000 82.361 -119.5014
1138.000000 82.508 -118.8502
1150.000000 82.602 -118.4499
1172.000000 82.768 -117.7539
1180.000000 82.826 -117.5127
1206.000000 83.006 -116.7795
1220.000000 83.098 -116.4049
1241.000000 83.229 -115.8492
1250.000000 83.283 -115.6179
1265.000000 83.370 -115.2474
1280.000000 83.456 -114.8870
1315.000000 83.644 -114.0481
1320.000000 83.669 -113.9271
1340.000000 83.768 -113.4440
1360.000000 83.864 -112.9598
1380.000000 83.958 -112.4695
1400.000000 84.048 -111.9709
1430.000000 84.180 -111.2179
1450.000000 84.267 -110.7067
1475.000000 84.373 -110.0555
1500.000000 84.478 -109.3939
1525.000000 84.583 -108.7265
1550.000000 84.687 -108.0566
1575.000000 84.792 -107.3785
1600.000000 84.897 -106.6928
1625.000000 85.003 -106.0134
1650.000000 85.111 -105.3356
1675.000000 85.219 -104.6539
1700.000000 85.328 -103.9755
1725.000000 85.439 -103.3027
1750.000000 85.553 -102.6342
1775.000000 85.667 -101.9739
1800.000000 85.783 -101.3261
1825.000000 85.901 -100.6918
1850.000000 86.021 -100.0670
1875.000000 86.142 -99.4511
1900.000000 86.265 -98.8485
1925.000000 86.390 -98.2674
1950.000000 86.517 -97.7085
1975.000000 86.645 -97.1650
2000.000000 86.775 -96.6350
2030.000000 86.933 -96.0283
2060.000000 87.093 -95.4600
2090.000000 87.254 -94.9225
2120.000000 87.416 -94.4170
2140.000000 87.524 -94.1014
2180.000000 87.744 -93.5242
2200.000000 87.854 -93.2613
2240.000000 88.076 -92.7836
2270.000000 88.241 -92.4742
2300.000000 88.408 -92.2130
2330.000000 88.574 -91.9973
2360.000000 88.740 -91.8284
2400.000000 88.959 -91.6792
2430.000000 89.121 -91.6288
2470.000000 89.334 -91.6452
2500.000000 89.490 -91.7162
2540.000000 89.692 -91.8846
2580.000000 89.886 -92.1450
2620.000000 90.072 -92.4995
2650.000000 90.205 -92.8188
2690.000000 90.371 -93.3138
2720.000000 90.488 -93.7386
2760.000000 90.633 -94.3748
2800.000000 90.764 -95.0830
2850.000000 90.902 -96.0512
2900.000000 91.012 -97.0969
2950.000000 91.093 -98.1983
3000.000000 91.141 -99.3232
3040.000000 91.156 -100.2119
3070.000000 91.153 -100.8632
3110.000000 91.133 -101.7024
3150.000000 91.094 -102.4923
3200.000000 91.020 -103.3886
3250.000000 90.922 -104.1591
3300.000000 90.805 -104.7876
3350.000000 90.672 -105.2675
3400.000000 90.528 -105.5900
3450.000000 90.377 -105.7625
3500.000000 90.225 -105.8052
3550.000000 90.070 -105.7324
3600.000000 89.915 -105.5556
3650.000000 89.759 -105.2781
3700.000000 89.604 -104.9000
3750.000000 89.452 -104.4270
3820.000000 89.245 -103.6150
3870.000000 89.103 -102.9388
3950.000000 88.888 -101.7178
4000.000000 88.764 -100.8886
4060.000000 88.624 -99.8323
4120.000000 88.493 -98.7196
4180.000000 88.373 -97.5647
4250.000000 88.248 -96.1757
4310.000000 88.150 -94.9598
4370.000000 88.063 -93.7354
4440.000000 87.976 -92.3166
4500.000000 87.911 -91.1353
4550.000000 87.861 -90.1876
4620.000000 87.792 -88.9116
4680.000000 87.733 -87.8516
4750.000000 87.664 -86.6512
4820.000000 87.590 -85.4830
4870.000000 87.531 -84.6563
4940.000000 87.442 -83.4869
5000.000000 87.359 -82.4518
5080.000000 87.242 -80.9933
5150.000000 87.139 -79.6289
5220.000000 87.039 -78.1879
5300.000000 86.935 -76.4691
5380.000000 86.844 -74.7079
5450.000000 86.774 -73.1563
5520.000000 86.713 -71.6140
5600.000000 86.652 -69.8852
5700.000000 86.580 -67.7829
5800.000000 86.508 -65.7325
5900.000000 86.433 -63.7005
6000.000000 86.357 -61.6527
6080.000000 86.295 -59.9856
6150.000000 86.240 -58.5031
6220.000000 86.186 -56.9982
6300.000000 86.128 -55.2456
6400.000000 86.060 -52.9957
6500.000000 85.999 -50.6764
6600.000000 85.949 -48.2947
6700.000000 85.911 -45.8537
6800.000000 85.889 -43.3554
6900.000000 85.883 -40.8035
7000.000000 85.899 -38.1970
7100.000000 85.941 -35.5454
7200.000000 86.014 -32.8822
7300.000000 86.121 -30.2486
7400.000000 86.261 -27.6724
7500.000000 86.438 -25.1686
7620.000000 86.703 -22.2961
7750.000000 87.061 -19.4299
7880.000000 87.502 -16.9459
8000.000000 87.985 -15.1333
8120.000000 88.539 -13.9550
8250.000000 89.209 -13.6415
8380.000000 89.924 -14.6491
8500.000000 90.572 -17.0515
8620.000000 91.130 -21.0639
8750.000000 91.525 -27.1649
8850.000000 91.612 -32.7811
9000.000000 91.322 -41.6491
9120.000000 90.737 -48.1040
9250.000000 89.824 -53.6249
9380.000000 88.729 -57.2954
9500.000000 87.649 -59.0992
9620.000000 86.566 -59.5987
9750.000000 85.437 -58.9602
9880.000000 84.375 -57.3695
10000.000000 83.466 -55.2578
10150.000000 82.429 -51.9773
10300.000000 81.500 -48.1760
10440.000000 80.722 -44.2920
10600.000000 79.933 -39.5866
10750.000000 79.287 -35.0231
10900.000000 78.728 -30.4066
11060.000000 78.216 -25.5012
11200.000000 77.833 -21.2746
11380.000000 77.421 -15.9599
11500.000000 77.191 -12.5056
11720.000000 76.858 -6.4018
11800.000000 76.767 -4.2580
12060.000000 76.582 2.3435
12200.000000 76.560 5.5737
12410.000000 76.623 9.7544
12500.000000 76.682 11.2225
12650.000000 76.813 13.1297
12800.000000 76.959 14.2689
13150.000000 77.162 13.9723
13200.000000 77.160 13.6566
13400.000000 77.048 11.9540
13600.000000 76.759 9.8747
13800.000000 76.298 7.8794
14000.000000 75.692 6.3779
14300.000000 74.625 5.5653
14500.000000 73.900 6.0162
14750.000000 73.061 7.4251
15000.000000 72.357 9.4281
15250.000000 71.827 11.6142
15500.000000 71.492 13.5841
15750.000000 71.374 14.9620
16000.000000 71.493 15.2384
16250.000000 71.863 13.6926
16500.000000 72.463 9.3166
16750.000000 73.146 0.7301
17000.000000 73.581 -13.3106
17250.000000 73.339 -32.0536
17500.000000 72.159 -51.6507
17750.000000 70.155 -68.0176
18000.000000 67.715 -80.0091
18250.000000 65.233 -88.8161
18500.000000 62.934 -96.1945
18750.000000 60.881 -103.5282
19000.000000 59.020 -111.8423
19250.000000 57.257 -121.8705
19500.000000 55.472 -133.5962
19750.000000 53.624 -145.3547
