* Measurement data measured by REW V5.20.9
* Source: Headset (USB-C to 3.5mm Headphone Jack Adapter), MICROPHONE (Master Volume), L, volume: 0.260. Timing signal peak level -28.0 dBFS, measurement signal peak level -27.3 dBFS
* Format: 256k Log Swept Sine, 1 sweep at -12.0 dBFS using an acoustic timing reference
* Dated: 06/01/2024 4:26:08 PM
* REW Settings:
*  C-weighting compensation: Off
*  Target level: 75.0 dB
* Note: ; Delay -0.0321 ms (-11 mm, -0.43 in) using estimated IR delay relative to Acoustic reference on SPEAKER L with no timing offset
* Measurement: Turbo 0011 L
* Smoothing: 1/24 octave
* Frequency Step: 1/48 octave
* Start Frequency: 1.000 Hz
*
* Freq(Hz) SPL(dB) Phase(degrees)
1.000000 47.436 -106.9283
1.015000 47.717 -107.4117
1.030000 47.995 -107.9092
1.044000 48.251 -108.3859
1.060000 48.541 -108.9447
1.075000 48.810 -109.4819
1.090000 49.076 -110.0315
1.106000 49.357 -110.6339
1.120000 49.598 -111.1903
1.138000 49.903 -111.9471
1.150000 50.103 -112.4755
1.172000 50.463 -113.4889
1.180000 50.592 -113.8704
1.206000 51.003 -115.1519
1.220000 51.220 -115.8648
1.241000 51.540 -116.9583
1.250000 51.676 -117.4343
1.265000 51.899 -118.2354
1.280000 52.119 -119.0438
1.315000 52.623 -120.9442
1.320000 52.693 -121.2158
1.340000 52.974 -122.2990
1.360000 53.251 -123.3721
1.380000 53.525 -124.4288
1.400000 53.796 -125.4630
1.430000 54.197 -126.9585
1.450000 54.462 -127.9092
1.475000 54.790 -129.0383
1.500000 55.112 -130.1268
1.525000 55.427 -131.1850
1.550000 55.735 -132.2169
1.575000 56.037 -133.2260
1.600000 56.334 -134.2161
1.625000 56.624 -135.1910
1.650000 56.909 -136.1545
1.675000 57.190 -137.1102
1.700000 57.466 -138.0620
1.725000 57.737 -139.0135
1.750000 58.005 -139.9685
1.775000 58.268 -140.9308
1.800000 58.529 -141.9041
1.825000 58.787 -142.8922
1.850000 59.041 -143.8962
1.875000 59.290 -144.9109
1.900000 59.534 -145.9339
1.925000 59.774 -146.9627
1.950000 60.009 -147.9952
1.975000 60.240 -149.0291
2.000000 60.467 -150.0621
2.030000 60.734 -151.2974
2.060000 60.997 -152.5243
2.090000 61.254 -153.7388
2.120000 61.508 -154.9371
2.140000 61.675 -155.7250
2.180000 62.004 -157.2692
2.200000 62.166 -158.0233
2.240000 62.485 -159.5041
2.270000 62.717 -160.5952
2.300000 62.945 -161.6704
2.330000 63.168 -162.7307
2.360000 63.387 -163.7771
2.400000 63.673 -165.1520
2.430000 63.882 -166.1691
2.470000 64.157 -167.5082
2.500000 64.359 -168.5009
2.540000 64.625 -169.8108
2.580000 64.886 -171.1060
2.620000 65.141 -172.3808
2.650000 65.327 -173.3232
2.690000 65.570 -174.5622
2.720000 65.749 -175.4790
2.760000 65.982 -176.6857
2.800000 66.211 -177.8755
2.850000 66.491 -179.3407
2.900000 66.765 179.2165
2.950000 67.033 177.7939
3.000000 67.295 176.3921
3.040000 67.499 175.2867
3.070000 67.649 174.4677
3.110000 67.845 173.3896
3.150000 68.038 172.3284
3.200000 68.274 171.0269
3.250000 68.506 169.7548
3.300000 68.734 168.5139
3.350000 68.957 167.3099
3.400000 69.175 166.1420
3.450000 69.388 165.0047
3.500000 69.596 163.8924
3.550000 69.801 162.7993
3.600000 70.001 161.7197
3.650000 70.199 160.6482
3.700000 70.393 159.5824
3.750000 70.584 158.5286
3.820000 70.844 157.0768
3.870000 71.025 156.0584
3.950000 71.309 154.4655
4.000000 71.482 153.4950
4.060000 71.687 152.3588
4.120000 71.887 151.2558
4.180000 72.083 150.1817
4.250000 72.305 148.9584
4.310000 72.492 147.9296
4.370000 72.675 146.9138
4.440000 72.884 145.7408
4.500000 73.058 144.7498
4.550000 73.201 143.9357
4.620000 73.396 142.8163
4.680000 73.559 141.8776
4.750000 73.746 140.8094
4.820000 73.929 139.7720
4.870000 74.056 139.0491
4.940000 74.231 138.0605
5.000000 74.377 137.2332
5.080000 74.569 136.1562
5.150000 74.733 135.2362
5.220000 74.894 134.3395
5.300000 75.073 133.3433
5.380000 75.248 132.3760
5.450000 75.399 131.5518
5.520000 75.548 130.7477
5.600000 75.716 129.8579
5.700000 75.921 128.7847
5.800000 76.122 127.7455
5.900000 76.321 126.7328
6.000000 76.517 125.7550
6.080000 76.672 124.9937
6.150000 76.805 124.3379
6.220000 76.938 123.6874
6.300000 77.088 122.9519
6.400000 77.273 122.0494
6.500000 77.455 121.1603
6.600000 77.633 120.2786
6.700000 77.809 119.4047
6.800000 77.981 118.5403
6.900000 78.149 117.6833
7.000000 78.313 116.8316
7.100000 78.473 115.9843
7.200000 78.628 115.1442
7.300000 78.780 114.3151
7.400000 78.926 113.4981
7.500000 79.069 112.6910
7.620000 79.234 111.7393
7.750000 79.407 110.7335
7.880000 79.573 109.7522
8.000000 79.721 108.8692
8.120000 79.865 108.0101
8.250000 80.017 107.1069
8.380000 80.164 106.2279
8.500000 80.298 105.4360
8.620000 80.428 104.6649
8.750000 80.567 103.8471
8.850000 80.671 103.2275
9.000000 80.826 102.3170
9.120000 80.946 101.6011
9.250000 81.075 100.8347
9.380000 81.201 100.0798
9.500000 81.315 99.3914
9.620000 81.427 98.7103
9.750000 81.546 97.9814
9.880000 81.662 97.2610
10.000000 81.768 96.6039
10.150000 81.897 95.7928
10.300000 82.024 94.9900
10.440000 82.141 94.2492
10.600000 82.272 93.4087
10.750000 82.392 92.6241
10.900000 82.510 91.8430
11.060000 82.632 91.0096
11.200000 82.737 90.2799
11.380000 82.867 89.3450
11.500000 82.951 88.7224
11.720000 83.098 87.5923
11.800000 83.150 87.1873
12.060000 83.309 85.8955
12.200000 83.390 85.2263
12.410000 83.508 84.2568
12.500000 83.557 83.8569
12.650000 83.639 83.2116
12.800000 83.720 82.5879
13.150000 83.912 81.2083
13.200000 83.940 81.0152
13.400000 84.053 80.2553
13.600000 84.169 79.4930
13.800000 84.286 78.7204
14.000000 84.401 77.9299
14.300000 84.569 76.7108
14.500000 84.674 75.8820
14.750000 84.798 74.8504
15.000000 84.912 73.8364
15.250000 85.018 72.8639
15.500000 85.118 71.9385
15.750000 85.216 71.0606
16.000000 85.314 70.2218
16.250000 85.411 69.4045
16.500000 85.509 68.5994
16.750000 85.606 67.7941
17.000000 85.699 66.9884
17.250000 85.788 66.1865
17.500000 85.872 65.3949
17.750000 85.953 64.6252
18.000000 86.030 63.8799
18.250000 86.105 63.1618
18.500000 86.179 62.4648
18.750000 86.254 61.7810
19.000000 86.329 61.1032
19.250000 86.403 60.4219
19.500000 86.476 59.7358
19.750000 86.546 59.0446
20.000000 86.612 58.3537
20.299999 86.687 57.5345
20.600000 86.757 56.7355
20.900000 86.823 55.9633
21.200001 86.888 55.2186
21.400000 86.931 54.7341
21.799999 87.016 53.7842
22.000000 87.059 53.3142
22.400000 87.142 52.3781
22.700001 87.202 51.6812
23.000000 87.259 50.9943
23.299999 87.315 50.3224
23.600000 87.369 49.6669
24.000000 87.440 48.8132
24.299999 87.494 48.1790
24.700001 87.565 47.3301
25.000000 87.616 46.6885
25.400000 87.678 45.8333
25.799999 87.734 44.9956
26.200001 87.786 44.1919
26.500000 87.822 43.6148
26.900000 87.871 42.8760
27.200001 87.908 42.3388
27.600000 87.957 41.6354
28.000000 88.007 40.9377
28.500000 88.067 40.0665
29.000000 88.122 39.2053
29.500000 88.172 38.3778
30.000000 88.222 37.5954
30.400000 88.263 36.9827
30.700001 88.295 36.5142
31.100000 88.334 35.8688
31.500000 88.365 35.2202
32.000000 88.392 34.4748
32.500000 88.418 33.8528
33.000000 88.462 33.2885
33.500000 88.519 32.6453
34.000000 88.570 31.8657
34.500000 88.598 31.0571
35.000000 88.610 30.3636
35.500000 88.630 29.8011
36.000000 88.671 29.2349
36.500000 88.718 28.5449
37.000000 88.752 27.7531
37.500000 88.766 26.9788
38.200001 88.777 26.0522
38.700001 88.791 25.4563
39.500000 88.822 24.4856
40.000000 88.839 23.8809
40.599998 88.859 23.1805
41.200001 88.880 22.4939
41.799999 88.900 21.8162
42.500000 88.921 21.0527
43.099998 88.938 20.4200
43.700001 88.955 19.8006
44.400002 88.971 19.1009
45.000000 88.985 18.5190
45.500000 88.994 18.0416
46.200001 89.005 17.3896
46.799999 89.014 16.8409
47.500000 89.018 16.1921
48.200001 89.012 15.5867
48.700001 89.008 15.2296
49.400002 89.020 14.7855
50.000000 89.047 14.3108
50.799999 89.072 13.4719
51.500000 89.067 12.7266
52.200001 89.056 12.0893
53.000000 89.052 11.4085
53.799999 89.048 10.7247
54.500000 89.044 10.1599
55.200001 89.043 9.6169
56.000000 89.043 8.9983
57.000000 89.039 8.2532
58.000000 89.035 7.5411
59.000000 89.028 6.8422
60.000000 89.018 6.1641
60.799999 89.011 5.6265
61.500000 89.004 5.1506
62.200001 88.995 4.6757
63.000000 88.985 4.1444
64.000000 88.973 3.4929
65.000000 88.961 2.8462
66.000000 88.946 2.2028
67.000000 88.927 1.5844
68.000000 88.906 1.0134
69.000000 88.888 0.4550
70.000000 88.868 -0.1100
71.000000 88.847 -0.6659
72.000000 88.825 -1.2108
73.000000 88.804 -1.7488
74.000000 88.781 -2.2792
75.000000 88.757 -2.7971
76.199997 88.728 -3.4011
77.500000 88.695 -4.0356
78.800003 88.662 -4.6604
80.000000 88.631 -5.2308
81.199997 88.599 -5.7913
82.500000 88.562 -6.3756
83.800003 88.524 -6.9313
85.000000 88.489 -7.4330
86.199997 88.451 -7.9283
87.500000 88.410 -8.4471
88.500000 88.378 -8.8402
90.000000 88.331 -9.4164
91.199997 88.294 -9.8710
92.500000 88.251 -10.3353
93.800003 88.212 -10.7605
95.000000 88.180 -11.1679
96.199997 88.147 -11.5848
97.500000 88.113 -12.0403
98.800003 88.080 -12.5135
100.000000 88.046 -12.9582
101.500000 87.998 -13.4856
103.000000 87.946 -13.9713
104.400002 87.896 -14.4086
106.000000 87.838 -14.9055
107.500000 87.783 -15.3726
109.000000 87.728 -15.8317
110.599998 87.670 -16.3015
112.000000 87.619 -16.6904
113.800003 87.554 -17.1633
115.000000 87.510 -17.4678
117.199997 87.427 -18.0168
118.000000 87.396 -18.2147
120.599998 87.298 -18.8459
122.000000 87.245 -19.1713
124.099998 87.166 -19.6368
125.000000 87.132 -19.8314
126.500000 87.074 -20.1505
128.000000 87.016 -20.4626
131.500000 86.882 -21.1748
132.000000 86.862 -21.2750
134.000000 86.783 -21.6615
136.000000 86.704 -22.0087
138.000000 86.628 -22.3405
140.000000 86.551 -22.6620
143.000000 86.430 -23.1216
145.000000 86.349 -23.4379
147.500000 86.253 -23.8875
150.000000 86.150 -24.3138
152.500000 86.048 -24.5284
155.000000 85.953 -24.7166
157.500000 85.852 -24.9647
160.000000 85.748 -25.2310
162.500000 85.647 -25.4641
165.000000 85.546 -25.6689
167.500000 85.442 -25.8609
170.000000 85.334 -26.0228
172.500000 85.224 -26.1459
175.000000 85.114 -26.2396
177.500000 85.002 -26.2939
180.000000 84.890 -26.2982
182.500000 84.778 -26.2446
185.000000 84.667 -26.1188
187.500000 84.560 -25.8963
190.000000 84.460 -25.5572
192.500000 84.376 -25.1041
195.000000 84.321 -24.5793
197.500000 84.303 -24.0595
200.000000 84.322 -23.6505
203.000000 84.378 -23.4869
206.000000 84.430 -23.7971
209.000000 84.441 -24.4375
212.000000 84.402 -25.1647
214.000000 84.354 -25.6130
218.000000 84.223 -26.3403
220.000000 84.148 -26.6160
224.000000 83.992 -27.0168
227.000000 83.874 -27.2156
230.000000 83.756 -27.3499
233.000000 83.640 -27.4325
236.000000 83.528 -27.4702
240.000000 83.386 -27.4672
243.000000 83.281 -27.4410
247.000000 83.140 -27.4142
250.000000 83.037 -27.3649
254.000000 82.907 -27.1910
258.000000 82.779 -26.9908
262.000000 82.652 -26.8058
265.000000 82.559 -26.6565
269.000000 82.437 -26.4392
272.000000 82.344 -26.2574
276.000000 82.223 -26.0001
280.000000 82.108 -25.7270
285.000000 81.966 -25.3497
290.000000 81.825 -24.9459
295.000000 81.687 -24.5191
300.000000 81.551 -24.0701
304.000000 81.445 -23.6857
307.000000 81.367 -23.3855
311.000000 81.266 -22.9766
315.000000 81.167 -22.5526
320.000000 81.045 -22.0040
325.000000 80.927 -21.4397
330.000000 80.810 -20.8431
335.000000 80.698 -20.2113
340.000000 80.588 -19.5519
345.000000 80.479 -18.8650
350.000000 80.374 -18.1586
355.000000 80.278 -17.4403
360.000000 80.185 -16.6752
365.000000 80.096 -15.8557
370.000000 80.015 -14.9968
375.000000 79.941 -14.1011
382.000000 79.860 -12.7888
387.000000 79.824 -11.8496
395.000000 79.809 -10.4720
400.000000 79.814 -9.7839
406.000000 79.812 -9.1688
412.000000 79.788 -8.6912
418.000000 79.744 -8.2014
425.000000 79.675 -7.5432
431.000000 79.611 -6.9073
437.000000 79.547 -6.1948
444.000000 79.473 -5.2469
450.000000 79.415 -4.4046
455.000000 79.379 -3.7200
462.000000 79.338 -2.7509
468.000000 79.306 -1.8972
475.000000 79.275 -0.8940
482.000000 79.249 0.1083
487.000000 79.234 0.8159
494.000000 79.219 1.7982
500.000000 79.212 2.6377
508.000000 79.208 3.7383
515.000000 79.209 4.6865
522.000000 79.214 5.6280
530.000000 79.226 6.6851
538.000000 79.243 7.7095
545.000000 79.260 8.5820
552.000000 79.281 9.4539
560.000000 79.315 10.4531
570.000000 79.361 11.6565
580.000000 79.410 12.7985
590.000000 79.464 13.9066
600.000000 79.522 15.0016
608.000000 79.573 15.8466
615.000000 79.619 16.5618
622.000000 79.667 17.2596
630.000000 79.725 18.0369
640.000000 79.801 18.9843
650.000000 79.879 19.9074
660.000000 79.953 20.7781
670.000000 80.030 21.6124
680.000000 80.110 22.4202
690.000000 80.193 23.2061
700.000000 80.278 23.9736
710.000000 80.365 24.7222
720.000000 80.453 25.4424
730.000000 80.542 26.1306
740.000000 80.632 26.8025
750.000000 80.723 27.4561
762.000000 80.832 28.1909
775.000000 80.952 28.9565
788.000000 81.074 29.6983
800.000000 81.187 30.3465
812.000000 81.302 30.9589
825.000000 81.428 31.5890
838.000000 81.555 32.1829
850.000000 81.673 32.7044
862.000000 81.793 33.2085
875.000000 81.923 33.7200
885.000000 82.024 34.0897
900.000000 82.175 34.5990
912.000000 82.296 34.9683
925.000000 82.428 35.3322
938.000000 82.560 35.6523
950.000000 82.681 35.9113
962.000000 82.800 36.1445
975.000000 82.929 36.3648
988.000000 83.056 36.5467
1000.000000 83.171 36.6837
1015.000000 83.313 36.8137
1030.000000 83.452 36.8871
1044.000000 83.577 36.9109
1060.000000 83.715 36.9101
1075.000000 83.840 36.8792
1090.000000 83.960 36.8117
1106.000000 84.081 36.7089
1120.000000 84.182 36.5956
1138.000000 84.304 36.4248
1150.000000 84.380 36.3007
1172.000000 84.514 36.0529
1180.000000 84.559 35.9557
1206.000000 84.695 35.6347
1220.000000 84.761 35.4638
1241.000000 84.853 35.2048
1250.000000 84.890 35.0944
1265.000000 84.949 34.9173
1280.000000 85.005 34.7495
1315.000000 85.119 34.3955
1320.000000 85.134 34.3490
1340.000000 85.190 34.1712
1360.000000 85.242 34.0173
1380.000000 85.291 33.8867
1400.000000 85.337 33.7724
1430.000000 85.401 33.6431
1450.000000 85.442 33.5773
1475.000000 85.490 33.5151
1500.000000 85.535 33.4828
1525.000000 85.579 33.4822
1550.000000 85.620 33.5127
1575.000000 85.660 33.5856
1600.000000 85.701 33.7016
1625.000000 85.746 33.8611
1650.000000 85.799 34.0488
1675.000000 85.861 34.2205
1700.000000 85.928 34.3455
1725.000000 85.992 34.4272
1750.000000 86.050 34.4939
1775.000000 86.103 34.5723
1800.000000 86.154 34.6764
1825.000000 86.204 34.8109
1850.000000 86.255 34.9744
1875.000000 86.309 35.1619
1900.000000 86.367 35.3730
1925.000000 86.430 35.6064
1950.000000 86.500 35.8491
1975.000000 86.577 36.0776
2000.000000 86.661 36.2735
2030.000000 86.765 36.4615
2060.000000 86.869 36.6105
2090.000000 86.971 36.7462
2120.000000 87.074 36.8885
2140.000000 87.144 36.9912
2180.000000 87.294 37.2141
2200.000000 87.376 37.3297
2240.000000 87.559 37.5337
2270.000000 87.715 37.6097
2300.000000 87.881 37.5665
2330.000000 88.053 37.3849
2360.000000 88.223 37.0792
2400.000000 88.443 36.5319
2430.000000 88.607 36.0378
2470.000000 88.831 35.2313
2500.000000 89.004 34.4568
2540.000000 89.227 33.1117
2580.000000 89.416 31.3838
2620.000000 89.545 29.3605
2650.000000 89.594 27.7582
2690.000000 89.597 25.6505
2720.000000 89.555 24.1641
2760.000000 89.449 22.3942
2800.000000 89.298 20.9447
2850.000000 89.070 19.6777
2900.000000 88.835 19.0306
2950.000000 88.626 18.8987
3000.000000 88.463 19.1112
3040.000000 88.368 19.4071
3070.000000 88.316 19.6616
3110.000000 88.267 20.0117
3150.000000 88.240 20.3390
3200.000000 88.231 20.6871
3250.000000 88.242 20.9623
3300.000000 88.271 21.1484
3350.000000 88.314 21.2039
3400.000000 88.365 21.0878
3450.000000 88.410 20.8016
3500.000000 88.442 20.3834
3550.000000 88.454 19.8849
3600.000000 88.450 19.3611
3650.000000 88.431 18.8474
3700.000000 88.404 18.3488
3750.000000 88.371 17.8535
3820.000000 88.313 17.1487
3870.000000 88.259 16.6409
3950.000000 88.148 15.8658
4000.000000 88.066 15.4417
4060.000000 87.957 15.0132
4120.000000 87.842 14.6837
4180.000000 87.722 14.4504
4250.000000 87.582 14.2809
4310.000000 87.463 14.2128
4370.000000 87.344 14.2070
4440.000000 87.207 14.2743
4500.000000 87.091 14.3932
4550.000000 86.996 14.5336
4620.000000 86.866 14.7944
4680.000000 86.757 15.0758
4750.000000 86.635 15.4600
4820.000000 86.518 15.9004
4870.000000 86.437 16.2496
4940.000000 86.327 16.7839
5000.000000 86.238 17.2844
5080.000000 86.125 18.0108
5150.000000 86.032 18.6996
5220.000000 85.945 19.4413
5300.000000 85.853 20.3580
5380.000000 85.768 21.3697
5450.000000 85.702 22.3748
5520.000000 85.653 23.5394
5600.000000 85.647 25.0510
5700.000000 85.745 26.7636
5800.000000 85.880 27.8934
5900.000000 86.010 28.7169
6000.000000 86.133 29.3503
6080.000000 86.229 29.8026
6150.000000 86.319 30.1606
6220.000000 86.416 30.4598
6300.000000 86.536 30.7087
6400.000000 86.693 30.8579
6500.000000 86.852 30.8092
6600.000000 87.006 30.5596
6700.000000 87.148 30.1290
6800.000000 87.274 29.5589
6900.000000 87.382 28.9084
7000.000000 87.472 28.2753
7100.000000 87.569 27.7588
7200.000000 87.712 27.1915
7300.000000 87.874 26.2444
7400.000000 88.020 25.0524
7500.000000 88.165 23.7280
7620.000000 88.354 21.8494
7750.000000 88.573 19.2297
7880.000000 88.777 15.7703
8000.000000 88.905 11.7066
8120.000000 88.920 6.8314
8250.000000 88.747 0.8905
8380.000000 88.332 -5.1977
8500.000000 87.729 -10.3643
8620.000000 86.950 -14.6201
8750.000000 85.969 -17.8907
8850.000000 85.166 -19.4054
9000.000000 83.956 -20.1632
9120.000000 83.028 -19.6569
9250.000000 82.098 -18.2230
9380.000000 81.265 -16.0814
9500.000000 80.590 -13.6580
9620.000000 80.007 -10.9607
9750.000000 79.474 -7.8522
9880.000000 79.035 -4.6340
10000.000000 78.709 -1.6173
10150.000000 78.407 2.1500
10300.000000 78.226 5.7905
10440.000000 78.165 8.9318
10600.000000 78.209 12.0005
10750.000000 78.338 14.2005
10900.000000 78.518 15.6456
11060.000000 78.723 16.3395
11200.000000 78.885 16.3265
11380.000000 79.052 15.7271
11500.000000 79.146 15.0931
11720.000000 79.332 13.4760
11800.000000 79.413 12.6732
12060.000000 79.710 8.5936
12200.000000 79.827 5.0969
12410.000000 79.783 -1.8948
12500.000000 79.643 -5.3052
12650.000000 79.216 -11.0156
12800.000000 78.559 -16.1447
13150.000000 76.466 -23.4397
13200.000000 76.145 -23.9007
13400.000000 74.897 -24.5209
13600.000000 73.774 -23.6196
13800.000000 72.820 -21.6913
14000.000000 72.058 -19.0907
14300.000000 71.312 -14.6144
14500.000000 71.087 -11.6423
14750.000000 71.141 -8.2410
15000.000000 71.626 -5.6832
15250.000000 72.607 -4.8749
15500.000000 74.083 -6.9626
15750.000000 76.012 -13.3877
16000.000000 78.225 -26.0795
16250.000000 80.390 -47.0903
16500.000000 82.143 -78.3082
16750.000000 82.926 -122.0772
17000.000000 81.846 -174.9937
17250.000000 78.376 138.5674
17500.000000 73.138 105.6608
17750.000000 67.357 78.3912
18000.000000 61.950 49.6978
18250.000000 57.368 17.7491
18500.000000 54.270 -16.0898
18750.000000 52.987 -50.0341
19000.000000 52.533 -82.1177
19250.000000 52.121 -112.1557
19500.000000 51.345 -140.7588
19750.000000 50.172 -165.6239
