* Measurement data measured by REW V5.20.9
* Source: Headset (USB-C to 3.5mm Headphone Jack Adapter), MICROPHONE (Master Volume), L, volume: 0.260. Timing signal peak level -27.2 dBFS, measurement signal peak level -20.2 dBFS
* Format: 256k Log Swept Sine, 1 sweep at -12.0 dBFS using an acoustic timing reference
* Dated: 06/01/2024 4:17:52 PM
* REW Settings:
*  C-weighting compensation: Off
*  Target level: 75.0 dB
* Note: ; Delay -0.0310 ms (-11 mm, -0.42 in) using estimated IR delay relative to Acoustic reference on SPEAKER R with no timing offset
* Measurement: Turbo 1100 R
* Smoothing: 1/24 octave
* Frequency Step: 1/48 octave
* Start Frequency: 1.000 Hz
*
* Freq(Hz) SPL(dB) Phase(degrees)
1.000000 56.218 -100.2710
1.015000 56.490 -101.6780
1.030000 56.760 -103.0429
1.044000 57.008 -104.2746
1.060000 57.288 -105.6268
1.075000 57.545 -106.8359
1.090000 57.799 -107.9830
1.106000 58.063 -109.1338
1.120000 58.292 -110.0829
1.138000 58.583 -111.2305
1.150000 58.775 -111.9534
1.172000 59.122 -113.1990
1.180000 59.247 -113.6285
1.206000 59.649 -114.9478
1.220000 59.863 -115.6154
1.241000 60.180 -116.5696
1.250000 60.314 -116.9637
1.265000 60.536 -117.6040
1.280000 60.756 -118.2273
1.315000 61.262 -119.6388
1.320000 61.334 -119.8378
1.340000 61.617 -120.6334
1.360000 61.897 -121.4356
1.380000 62.173 -122.2543
1.400000 62.447 -123.0994
1.430000 62.852 -124.4378
1.450000 63.118 -125.3918
1.475000 63.446 -126.6659
1.500000 63.769 -127.9960
1.525000 64.086 -129.3656
1.550000 64.398 -130.7668
1.575000 64.703 -132.1919
1.600000 65.004 -133.6333
1.625000 65.299 -135.0831
1.650000 65.589 -136.5337
1.675000 65.875 -137.9772
1.700000 66.156 -139.4062
1.725000 66.433 -140.8127
1.750000 66.705 -142.1890
1.775000 66.974 -143.5274
1.800000 67.239 -144.8203
1.825000 67.500 -146.0598
1.850000 67.758 -147.2443
1.875000 68.010 -148.3863
1.900000 68.257 -149.4904
1.925000 68.500 -150.5607
1.950000 68.738 -151.6011
1.975000 68.972 -152.6159
2.000000 69.202 -153.6091
2.030000 69.473 -154.7780
2.060000 69.738 -155.9286
2.090000 69.999 -157.0680
2.120000 70.255 -158.2031
2.140000 70.423 -158.9610
2.180000 70.754 -160.4888
2.200000 70.917 -161.2628
2.240000 71.236 -162.8143
2.270000 71.469 -163.9732
2.300000 71.697 -165.1266
2.330000 71.920 -166.2731
2.360000 72.138 -167.4115
2.400000 72.422 -168.9143
2.430000 72.630 -170.0285
2.470000 72.902 -171.4942
2.500000 73.102 -172.5769
2.540000 73.364 -173.9958
2.580000 73.621 -175.3850
2.620000 73.871 -176.7519
2.650000 74.053 -177.7632
2.690000 74.290 -179.0922
2.720000 74.464 179.9264
2.760000 74.690 178.6393
2.800000 74.911 177.3777
2.850000 75.180 175.8388
2.900000 75.443 174.3444
2.950000 75.701 172.8981
3.000000 75.950 171.5092
3.040000 76.143 170.4354
3.070000 76.284 169.6491
3.110000 76.469 168.6223
3.150000 76.650 167.6161
3.200000 76.872 166.3802
3.250000 77.088 165.1607
3.300000 77.301 163.9485
3.350000 77.510 162.7432
3.400000 77.712 161.5520
3.450000 77.908 160.3797
3.500000 78.101 159.2316
3.550000 78.289 158.1125
3.600000 78.474 157.0275
3.650000 78.657 155.9817
3.700000 78.837 154.9818
3.750000 79.014 154.0296
3.820000 79.255 152.7606
3.870000 79.423 151.8876
3.950000 79.688 150.5239
4.000000 79.850 149.6784
4.060000 80.044 148.6598
4.120000 80.233 147.6504
4.180000 80.420 146.6557
4.250000 80.634 145.5178
4.310000 80.814 144.5651
4.370000 80.992 143.6364
4.440000 81.196 142.5889
4.500000 81.369 141.7245
4.550000 81.511 141.0229
4.620000 81.706 140.0610
4.680000 81.871 139.2479
4.750000 82.061 138.3028
4.820000 82.247 137.3576
4.870000 82.377 136.6877
4.940000 82.557 135.7588
5.000000 82.709 134.9726
5.080000 82.907 133.9409
5.150000 83.077 133.0560
5.220000 83.243 132.1876
5.300000 83.429 131.2134
5.380000 83.610 130.2570
5.450000 83.765 129.4335
5.520000 83.917 128.6211
5.600000 84.086 127.7073
5.700000 84.292 126.5879
5.800000 84.492 125.4941
5.900000 84.687 124.4265
6.000000 84.876 123.3851
6.080000 85.023 122.5705
6.150000 85.149 121.8711
6.220000 85.274 121.1841
6.300000 85.413 120.4158
6.400000 85.584 119.4805
6.500000 85.750 118.5676
6.600000 85.913 117.6710
6.700000 86.073 116.7914
6.800000 86.229 115.9303
6.900000 86.383 115.0851
7.000000 86.533 114.2542
7.100000 86.681 113.4402
7.200000 86.825 112.6405
7.300000 86.967 111.8508
7.400000 87.106 111.0686
7.500000 87.242 110.2963
7.620000 87.401 109.3824
7.750000 87.569 108.4076
7.880000 87.733 107.4491
8.000000 87.879 106.5781
8.120000 88.022 105.7195
8.250000 88.173 104.8036
8.380000 88.319 103.9028
8.500000 88.451 103.0848
8.620000 88.580 102.2802
8.750000 88.716 101.4218
8.850000 88.819 100.7704
9.000000 88.969 99.8091
9.120000 89.087 99.0512
9.250000 89.211 98.2398
9.380000 89.334 97.4392
9.500000 89.444 96.7084
9.620000 89.552 95.9848
9.750000 89.667 95.2094
9.880000 89.780 94.4421
10.000000 89.882 93.7406
10.150000 90.006 92.8733
10.300000 90.127 92.0183
10.440000 90.237 91.2312
10.600000 90.361 90.3452
10.750000 90.474 89.5284
10.900000 90.584 88.7245
11.060000 90.700 87.8805
11.200000 90.800 87.1539
11.380000 90.927 86.2316
11.500000 91.010 85.6239
11.720000 91.161 84.5212
11.800000 91.215 84.1225
12.060000 91.387 82.8357
12.200000 91.478 82.1465
12.410000 91.610 81.1186
12.500000 91.665 80.6815
12.650000 91.755 79.9565
12.800000 91.842 79.2400
13.150000 92.035 77.6114
13.200000 92.062 77.3851
13.400000 92.166 76.4966
13.600000 92.267 75.6359
13.800000 92.366 74.8048
14.000000 92.464 73.9971
14.300000 92.610 72.8243
14.500000 92.706 72.0588
14.750000 92.825 71.1112
15.000000 92.943 70.1696
15.250000 93.056 69.2304
15.500000 93.165 68.2980
15.750000 93.269 67.3758
16.000000 93.368 66.4700
16.250000 93.463 65.5844
16.500000 93.555 64.7196
16.750000 93.643 63.8754
17.000000 93.729 63.0479
17.250000 93.812 62.2347
17.500000 93.894 61.4326
17.750000 93.973 60.6395
18.000000 94.050 59.8547
18.250000 94.125 59.0777
18.500000 94.197 58.3082
18.750000 94.267 57.5465
19.000000 94.335 56.7929
19.250000 94.401 56.0481
19.500000 94.464 55.3130
19.750000 94.526 54.5881
20.000000 94.586 53.8745
20.299999 94.656 53.0323
20.600000 94.724 52.2046
20.900000 94.791 51.3893
21.200001 94.856 50.5846
21.400000 94.899 50.0538
21.799999 94.980 49.0079
22.000000 95.020 48.4942
22.400000 95.096 47.4883
22.700001 95.152 46.7528
23.000000 95.206 46.0312
23.299999 95.260 45.3186
23.600000 95.312 44.6113
24.000000 95.379 43.6741
24.299999 95.425 42.9796
24.700001 95.481 42.0773
25.000000 95.521 41.4270
25.400000 95.573 40.5988
25.799999 95.627 39.7982
26.200001 95.684 38.9938
26.500000 95.726 38.3738
26.900000 95.776 37.5287
27.200001 95.809 36.8997
27.600000 95.846 36.0982
28.000000 95.883 35.3519
28.500000 95.935 34.4491
29.000000 95.991 33.4948
29.500000 96.033 32.4950
30.000000 96.058 31.5643
30.400000 96.078 30.9114
30.700001 96.100 30.4454
31.100000 96.134 29.7765
31.500000 96.162 29.0141
32.000000 96.164 28.0266
32.500000 96.131 27.2527
33.000000 96.105 26.8197
33.500000 96.124 26.5359
34.000000 96.177 26.1117
34.500000 96.227 25.5142
35.000000 96.266 24.9274
35.500000 96.324 24.4113
36.000000 96.416 23.7465
36.500000 96.509 22.7192
37.000000 96.556 21.4337
37.500000 96.544 20.2318
38.200001 96.504 19.0609
38.700001 96.506 18.4268
39.500000 96.538 17.2637
40.000000 96.548 16.4926
40.599998 96.551 15.6673
41.200001 96.561 14.9211
41.799999 96.575 14.1741
42.500000 96.585 13.3228
43.099998 96.591 12.6470
43.700001 96.599 11.9880
44.400002 96.607 11.2112
45.000000 96.611 10.5488
45.500000 96.614 9.9971
46.200001 96.616 9.2087
46.799999 96.615 8.5264
47.500000 96.612 7.7432
48.200001 96.610 6.9515
48.700001 96.605 6.3716
49.400002 96.589 5.5878
50.000000 96.572 5.0006
50.799999 96.560 4.3184
51.500000 96.561 3.7103
52.200001 96.561 3.0593
53.000000 96.553 2.3269
53.799999 96.542 1.6323
54.500000 96.533 1.0278
55.200001 96.521 0.4188
56.000000 96.504 -0.2718
57.000000 96.482 -1.1221
58.000000 96.460 -1.9749
59.000000 96.437 -2.8330
60.000000 96.411 -3.6701
60.799999 96.389 -4.3132
61.500000 96.370 -4.8594
62.200001 96.351 -5.3962
63.000000 96.326 -5.9965
64.000000 96.292 -6.7224
65.000000 96.254 -7.4245
66.000000 96.215 -8.0900
67.000000 96.179 -8.7543
68.000000 96.141 -9.4550
69.000000 96.097 -10.1378
70.000000 96.052 -10.7841
71.000000 96.007 -11.4037
72.000000 95.963 -11.9962
73.000000 95.916 -12.5732
74.000000 95.865 -13.1157
75.000000 95.810 -13.6086
76.199997 95.744 -14.1483
77.500000 95.672 -14.6677
78.800003 95.604 -15.0874
80.000000 95.555 -15.3783
81.199997 95.530 -15.5886
82.500000 95.541 -15.8585
83.800003 95.575 -16.3259
85.000000 95.603 -16.9580
86.199997 95.616 -17.7352
87.500000 95.603 -18.6622
88.500000 95.574 -19.3749
90.000000 95.511 -20.3516
91.199997 95.456 -21.0447
92.500000 95.398 -21.7503
93.800003 95.338 -22.4460
95.000000 95.277 -23.0612
96.199997 95.215 -23.6442
97.500000 95.149 -24.2490
98.800003 95.084 -24.8444
100.000000 95.023 -25.3829
101.500000 94.947 -26.0159
103.000000 94.869 -26.6259
104.400002 94.793 -27.1769
106.000000 94.697 -27.7804
107.500000 94.599 -28.3055
109.000000 94.496 -28.7776
110.599998 94.380 -29.2019
112.000000 94.275 -29.4679
113.800003 94.142 -29.6355
115.000000 94.057 -29.6227
117.199997 93.934 -29.3030
118.000000 93.907 -29.1127
120.599998 93.909 -28.5000
122.000000 93.965 -28.3279
124.099998 94.098 -28.5345
125.000000 94.161 -28.8507
126.500000 94.250 -29.6829
128.000000 94.297 -30.7817
131.500000 94.234 -33.4249
132.000000 94.212 -33.7568
134.000000 94.106 -34.9371
136.000000 93.989 -35.8944
138.000000 93.871 -36.7025
140.000000 93.755 -37.4181
143.000000 93.586 -38.3817
145.000000 93.481 -38.9641
147.500000 93.357 -39.6208
150.000000 93.236 -40.2451
152.500000 93.106 -40.8534
155.000000 92.976 -41.4174
157.500000 92.853 -41.9675
160.000000 92.732 -42.4895
162.500000 92.613 -42.9794
165.000000 92.496 -43.4561
167.500000 92.380 -43.9155
170.000000 92.265 -44.3452
172.500000 92.152 -44.7555
175.000000 92.041 -45.1633
177.500000 91.931 -45.5682
180.000000 91.820 -45.9587
182.500000 91.710 -46.3398
185.000000 91.599 -46.7179
187.500000 91.487 -47.0844
190.000000 91.375 -47.4352
192.500000 91.262 -47.7709
195.000000 91.149 -48.0952
197.500000 91.037 -48.4079
200.000000 90.927 -48.7056
203.000000 90.794 -49.0309
206.000000 90.661 -49.3218
209.000000 90.528 -49.6011
212.000000 90.396 -49.8706
214.000000 90.308 -50.0442
218.000000 90.131 -50.3715
220.000000 90.043 -50.5220
224.000000 89.867 -50.8015
227.000000 89.734 -50.9953
230.000000 89.599 -51.1761
233.000000 89.464 -51.3364
236.000000 89.327 -51.4631
240.000000 89.142 -51.5825
243.000000 89.001 -51.6445
247.000000 88.813 -51.6695
250.000000 88.669 -51.6120
254.000000 88.468 -51.3923
258.000000 88.268 -51.0017
262.000000 88.078 -50.3762
265.000000 87.952 -49.7177
269.000000 87.837 -48.5668
272.000000 87.816 -47.5831
276.000000 87.892 -46.4933
280.000000 88.048 -46.1548
285.000000 88.215 -47.0344
290.000000 88.234 -48.6798
295.000000 88.117 -50.2501
300.000000 87.927 -51.4301
304.000000 87.756 -52.1077
307.000000 87.624 -52.4924
311.000000 87.451 -52.8826
315.000000 87.280 -53.1707
320.000000 87.072 -53.4258
325.000000 86.870 -53.5922
330.000000 86.674 -53.6875
335.000000 86.482 -53.7295
340.000000 86.293 -53.7383
345.000000 86.108 -53.7130
350.000000 85.926 -53.6491
355.000000 85.750 -53.5587
360.000000 85.577 -53.4489
365.000000 85.405 -53.3164
370.000000 85.235 -53.1630
375.000000 85.067 -52.9866
382.000000 84.835 -52.7041
387.000000 84.671 -52.4830
395.000000 84.412 -52.0796
400.000000 84.252 -51.8044
406.000000 84.062 -51.4588
412.000000 83.875 -51.0879
418.000000 83.689 -50.6841
425.000000 83.476 -50.1834
431.000000 83.296 -49.7360
437.000000 83.118 -49.2570
444.000000 82.909 -48.6488
450.000000 82.732 -48.1017
455.000000 82.591 -47.6451
462.000000 82.399 -46.9755
468.000000 82.234 -46.3651
475.000000 82.043 -45.6263
482.000000 81.856 -44.8531
487.000000 81.725 -44.2767
494.000000 81.543 -43.4418
500.000000 81.391 -42.7073
508.000000 81.195 -41.6963
515.000000 81.028 -40.7764
522.000000 80.864 -39.8245
530.000000 80.683 -38.7010
538.000000 80.507 -37.5436
545.000000 80.357 -36.4989
552.000000 80.214 -35.4219
560.000000 80.063 -34.1601
570.000000 79.882 -32.5519
580.000000 79.710 -30.9073
590.000000 79.551 -29.2194
600.000000 79.405 -27.4917
608.000000 79.297 -26.0928
615.000000 79.209 -24.8571
622.000000 79.128 -23.6166
630.000000 79.045 -22.1931
640.000000 78.954 -20.4144
650.000000 78.877 -18.6366
660.000000 78.808 -16.8318
670.000000 78.753 -15.0312
680.000000 78.712 -13.2448
690.000000 78.683 -11.4766
700.000000 78.666 -9.7389
710.000000 78.660 -8.0377
720.000000 78.664 -6.3702
730.000000 78.679 -4.7278
740.000000 78.706 -3.1246
750.000000 78.741 -1.5696
762.000000 78.790 0.2663
775.000000 78.857 2.1914
788.000000 78.938 4.0345
800.000000 79.021 5.6655
812.000000 79.112 7.2273
825.000000 79.221 8.8483
838.000000 79.337 10.4014
850.000000 79.448 11.7636
862.000000 79.565 13.0481
875.000000 79.698 14.3693
885.000000 79.804 15.3451
900.000000 79.964 16.7213
912.000000 80.095 17.7408
925.000000 80.239 18.7874
938.000000 80.386 19.7724
950.000000 80.522 20.6116
962.000000 80.657 21.3778
975.000000 80.805 22.1493
988.000000 80.952 22.8724
1000.000000 81.087 23.4839
1015.000000 81.252 24.1702
1030.000000 81.415 24.7908
1044.000000 81.565 25.3195
1060.000000 81.729 25.8454
1075.000000 81.877 26.2632
1090.000000 82.021 26.6321
1106.000000 82.168 26.9824
1120.000000 82.291 27.2504
1138.000000 82.441 27.5393
1150.000000 82.537 27.7105
1172.000000 82.706 28.0095
1180.000000 82.764 28.1044
1206.000000 82.942 28.3584
1220.000000 83.032 28.4734
1241.000000 83.159 28.6312
1250.000000 83.211 28.6950
1265.000000 83.293 28.8035
1280.000000 83.372 28.9131
1315.000000 83.542 29.1652
1320.000000 83.565 29.2007
1340.000000 83.654 29.3438
1360.000000 83.739 29.5007
1380.000000 83.820 29.6707
1400.000000 83.897 29.8475
1430.000000 84.009 30.1451
1450.000000 84.084 30.3660
1475.000000 84.182 30.6473
1500.000000 84.283 30.9048
1525.000000 84.384 31.1188
1550.000000 84.479 31.2931
1575.000000 84.567 31.4588
1600.000000 84.648 31.6450
1625.000000 84.726 31.8585
1650.000000 84.804 32.0909
1675.000000 84.881 32.3396
1700.000000 84.958 32.6098
1725.000000 85.038 32.8888
1750.000000 85.120 33.1694
1775.000000 85.204 33.4651
1800.000000 85.291 33.7727
1825.000000 85.382 34.0742
1850.000000 85.477 34.3628
1875.000000 85.574 34.6381
1900.000000 85.673 34.9048
1925.000000 85.775 35.1573
1950.000000 85.880 35.3877
1975.000000 85.987 35.6015
2000.000000 86.096 35.8055
2030.000000 86.230 36.0356
2060.000000 86.368 36.2351
2090.000000 86.512 36.3937
2120.000000 86.660 36.5190
2140.000000 86.759 36.5833
2180.000000 86.965 36.6537
2200.000000 87.071 36.6609
2240.000000 87.288 36.6311
2270.000000 87.457 36.5711
2300.000000 87.636 36.4669
2330.000000 87.829 36.2949
2360.000000 88.040 36.0113
2400.000000 88.344 35.3271
2430.000000 88.577 34.4836
2470.000000 88.864 32.8833
2500.000000 89.044 31.3857
2540.000000 89.220 29.1057
2580.000000 89.313 26.6300
2620.000000 89.316 24.1525
2650.000000 89.260 22.4218
2690.000000 89.122 20.4247
2720.000000 88.986 19.2203
2760.000000 88.781 18.0398
2800.000000 88.570 17.3256
2850.000000 88.328 16.9684
2900.000000 88.126 17.0200
2950.000000 87.966 17.3135
3000.000000 87.843 17.7514
3040.000000 87.767 18.1912
3070.000000 87.723 18.5692
3110.000000 87.685 19.1234
3150.000000 87.673 19.7108
3200.000000 87.699 20.4136
3250.000000 87.764 20.9672
3300.000000 87.852 21.2950
3350.000000 87.950 21.3729
3400.000000 88.045 21.2190
3450.000000 88.126 20.8752
3500.000000 88.186 20.3878
3550.000000 88.225 19.8055
3600.000000 88.242 19.1786
3650.000000 88.237 18.5535
3700.000000 88.213 17.9620
3750.000000 88.175 17.4205
3820.000000 88.107 16.7646
3870.000000 88.052 16.3676
3950.000000 87.955 15.8270
4000.000000 87.891 15.5326
4060.000000 87.808 15.2325
4120.000000 87.719 15.0121
4180.000000 87.626 14.8871
4250.000000 87.521 14.8590
4310.000000 87.439 14.9210
4370.000000 87.363 15.0347
4440.000000 87.285 15.1912
4500.000000 87.224 15.3258
4550.000000 87.176 15.4387
4620.000000 87.107 15.6072
4680.000000 87.047 15.7639
4750.000000 86.978 15.9604
4820.000000 86.909 16.1842
4870.000000 86.858 16.3658
4940.000000 86.785 16.6532
5000.000000 86.721 16.9314
5080.000000 86.632 17.3687
5150.000000 86.550 17.8488
5220.000000 86.465 18.4495
5300.000000 86.373 19.3254
5380.000000 86.295 20.4858
5450.000000 86.269 21.7950
5520.000000 86.325 23.1827
5600.000000 86.465 24.2429
5700.000000 86.599 25.0082
5800.000000 86.742 25.7212
5900.000000 86.877 26.1857
6000.000000 87.008 26.6936
6080.000000 87.131 27.1141
6150.000000 87.258 27.4323
6220.000000 87.402 27.6650
6300.000000 87.582 27.7946
6400.000000 87.824 27.7090
6500.000000 88.078 27.3129
6600.000000 88.334 26.5862
6700.000000 88.579 25.5327
6800.000000 88.804 24.1753
6900.000000 89.001 22.5624
7000.000000 89.163 20.8056
7100.000000 89.311 19.0453
7200.000000 89.484 17.0825
7300.000000 89.641 14.5735
7400.000000 89.737 11.7448
7500.000000 89.786 8.7736
7620.000000 89.792 4.9773
7750.000000 89.726 0.5146
7880.000000 89.559 -4.2955
8000.000000 89.290 -8.9373
8120.000000 88.895 -13.5973
8250.000000 88.316 -18.3992
8380.000000 87.582 -22.6213
8500.000000 86.790 -25.7393
8620.000000 85.922 -27.9423
8750.000000 84.946 -29.2562
8850.000000 84.197 -29.5585
9000.000000 83.111 -29.0121
9120.000000 82.297 -27.8678
9250.000000 81.482 -26.0698
9380.000000 80.740 -23.7988
9500.000000 80.121 -21.3593
9620.000000 79.569 -18.6517
9750.000000 79.048 -15.4891
9880.000000 78.608 -12.1765
10000.000000 78.272 -9.0323
10150.000000 77.946 -5.0089
10300.000000 77.738 -0.9543
10440.000000 77.660 2.7056
10600.000000 77.704 6.5005
10750.000000 77.860 9.4650
10900.000000 78.099 11.6749
11060.000000 78.405 13.0789
11200.000000 78.676 13.5085
11380.000000 78.992 13.1371
11500.000000 79.175 12.4515
11720.000000 79.468 10.4792
11800.000000 79.567 9.5144
12060.000000 79.844 5.1133
12200.000000 79.923 1.7597
12410.000000 79.835 -4.4761
12500.000000 79.694 -7.3979
12650.000000 79.302 -12.1843
12800.000000 78.730 -16.4035
13150.000000 76.977 -22.2524
13200.000000 76.712 -22.5938
13400.000000 75.698 -22.8910
13600.000000 74.821 -21.8193
13800.000000 74.138 -19.8522
14000.000000 73.681 -17.4194
14300.000000 73.449 -13.8193
14500.000000 73.571 -11.9059
14750.000000 74.142 -10.1074
15000.000000 75.289 -10.5340
15250.000000 76.933 -15.2008
15500.000000 78.719 -26.8540
15750.000000 79.921 -47.0361
16000.000000 79.940 -71.4333
16250.000000 79.131 -91.8550
16500.000000 78.893 -111.4100
16750.000000 79.075 -140.8959
17000.000000 78.167 177.2961
17250.000000 75.098 136.6825
17500.000000 70.123 108.2938
17750.000000 64.283 86.3718
18000.000000 58.498 60.7119
18250.000000 53.217 24.9482
18500.000000 49.343 -18.5654
18750.000000 48.226 -60.0051
19000.000000 48.651 -93.6157
19250.000000 49.059 -121.1545
19500.000000 48.959 -146.2251
19750.000000 48.311 -168.4390
