* Measurement data measured by REW V5.20.9
* Source: Headset (USB-C to 3.5mm Headphone Jack Adapter), MICROPHONE (Master Volume), L, volume: 0.260. Timing signal peak level -28.1 dBFS, measurement signal peak level -26.2 dBFS
* Format: 256k Log Swept Sine, 1 sweep at -12.0 dBFS using an acoustic timing reference
* Dated: 06/01/2024 4:22:32 PM
* REW Settings:
*  C-weighting compensation: Off
*  Target level: 75.0 dB
* Note: ; Delay -0.0351 ms (-12 mm, -0.47 in) using estimated IR delay relative to Acoustic reference on SPEAKER L with no timing offset
* Measurement: Turbo 0100 L
* Smoothing: 1/24 octave
* Frequency Step: 1/48 octave
* Start Frequency: 1.000 Hz
*
* Freq(Hz) SPL(dB) Phase(degrees)
1.000000 49.669 -102.5628
1.015000 49.950 -103.5234
1.030000 50.228 -104.4672
1.044000 50.485 -105.3307
1.060000 50.776 -106.2938
1.075000 51.045 -107.1709
1.090000 51.311 -108.0203
1.106000 51.591 -108.8941
1.120000 51.833 -109.6382
1.138000 52.139 -110.5709
1.150000 52.339 -111.1787
1.172000 52.701 -112.2667
1.180000 52.830 -112.6546
1.206000 53.244 -113.8899
1.220000 53.463 -114.5410
1.241000 53.785 -115.5020
1.250000 53.922 -115.9090
1.265000 54.147 -116.5820
1.280000 54.369 -117.2493
1.315000 54.878 -118.7925
1.320000 54.949 -119.0122
1.340000 55.233 -119.8906
1.360000 55.513 -120.7714
1.380000 55.790 -121.6579
1.400000 56.064 -122.5533
1.430000 56.469 -123.9202
1.450000 56.736 -124.8522
1.475000 57.067 -126.0451
1.500000 57.392 -127.2610
1.525000 57.710 -128.4944
1.550000 58.022 -129.7415
1.575000 58.327 -130.9985
1.600000 58.626 -132.2617
1.625000 58.920 -133.5274
1.650000 59.209 -134.7918
1.675000 59.492 -136.0511
1.700000 59.771 -137.3017
1.725000 60.045 -138.5398
1.750000 60.315 -139.7616
1.775000 60.581 -140.9634
1.800000 60.844 -142.1415
1.825000 61.103 -143.2921
1.850000 61.358 -144.4150
1.875000 61.609 -145.5176
1.900000 61.854 -146.6017
1.925000 62.095 -147.6688
1.950000 62.331 -148.7204
1.975000 62.562 -149.7578
2.000000 62.790 -150.7828
2.030000 63.057 -151.9983
2.060000 63.320 -153.2003
2.090000 63.577 -154.3916
2.120000 63.830 -155.5746
2.140000 63.996 -156.3599
2.180000 64.323 -157.9261
2.200000 64.484 -158.7084
2.240000 64.800 -160.2663
2.270000 65.030 -161.4260
2.300000 65.255 -162.5773
2.330000 65.475 -163.7197
2.360000 65.690 -164.8522
2.400000 65.970 -166.3458
2.430000 66.175 -167.4527
2.470000 66.443 -168.9093
2.500000 66.640 -169.9865
2.540000 66.898 -171.4008
2.580000 67.151 -172.7892
2.620000 67.396 -174.1560
2.650000 67.575 -175.1673
2.690000 67.808 -176.4968
2.720000 67.979 -177.4793
2.760000 68.201 -178.7692
2.800000 68.417 179.9646
2.850000 68.681 178.4163
2.900000 68.938 176.9076
2.950000 69.190 175.4404
3.000000 69.433 174.0184
3.040000 69.622 172.9116
3.070000 69.760 172.0981
3.110000 69.940 171.0340
3.150000 70.117 169.9915
3.200000 70.332 168.7157
3.250000 70.543 167.4665
3.300000 70.751 166.2400
3.350000 70.953 165.0376
3.400000 71.150 163.8628
3.450000 71.341 162.7164
3.500000 71.528 161.5992
3.550000 71.711 160.5121
3.600000 71.891 159.4559
3.650000 72.069 158.4315
3.700000 72.245 157.4426
3.750000 72.418 156.4940
3.820000 72.654 155.2230
3.870000 72.819 154.3479
3.950000 73.079 152.9881
4.000000 73.240 152.1543
4.060000 73.432 151.1640
4.120000 73.622 150.1987
4.180000 73.809 149.2584
4.250000 74.024 148.1891
4.310000 74.206 147.2930
4.370000 74.387 146.4128
4.440000 74.596 145.4070
4.500000 74.774 144.5712
4.550000 74.921 143.8897
4.620000 75.124 142.9517
4.680000 75.296 142.1561
4.750000 75.494 141.2297
4.820000 75.690 140.3033
4.870000 75.828 139.6468
4.940000 76.020 138.7343
5.000000 76.181 137.9579
5.080000 76.393 136.9301
5.150000 76.574 136.0368
5.220000 76.752 135.1493
5.300000 76.951 134.1427
5.380000 77.145 133.1449
5.450000 77.311 132.2797
5.520000 77.473 131.4218
5.600000 77.653 130.4476
5.700000 77.871 129.2426
5.800000 78.081 128.0580
5.900000 78.284 126.8992
6.000000 78.479 125.7612
6.080000 78.629 124.8677
6.150000 78.758 124.1008
6.220000 78.883 123.3498
6.300000 79.022 122.5114
6.400000 79.191 121.4904
6.500000 79.354 120.4992
6.600000 79.513 119.5377
6.700000 79.667 118.6074
6.800000 79.817 117.7072
6.900000 79.964 116.8338
7.000000 80.108 115.9850
7.100000 80.250 115.1654
7.200000 80.389 114.3699
7.300000 80.525 113.5914
7.400000 80.661 112.8274
7.500000 80.794 112.0824
7.620000 80.952 111.2060
7.750000 81.120 110.2695
7.880000 81.285 109.3504
8.000000 81.435 108.5136
8.120000 81.581 107.6826
8.250000 81.736 106.7910
8.380000 81.887 105.9092
8.500000 82.023 105.1036
8.620000 82.154 104.3055
8.750000 82.293 103.4529
8.850000 82.397 102.8073
9.000000 82.548 101.8537
9.120000 82.666 101.1062
9.250000 82.790 100.3141
9.380000 82.911 99.5394
9.500000 83.021 98.8388
9.620000 83.129 98.1530
9.750000 83.244 97.4265
9.880000 83.358 96.7111
10.000000 83.462 96.0600
10.150000 83.591 95.2587
10.300000 83.719 94.4609
10.440000 83.837 93.7205
10.600000 83.970 92.8748
10.750000 84.093 92.0775
10.900000 84.213 91.2780
11.060000 84.337 90.4236
11.200000 84.442 89.6732
11.380000 84.572 88.7153
11.500000 84.655 88.0807
11.720000 84.801 86.9366
11.800000 84.852 86.5304
12.060000 85.010 85.2450
12.200000 85.092 84.5830
12.410000 85.212 83.6273
12.500000 85.264 83.2309
12.650000 85.348 82.5898
12.800000 85.433 81.9650
13.150000 85.634 80.5542
13.200000 85.663 80.3542
13.400000 85.780 79.5591
13.600000 85.896 78.7594
13.800000 86.011 77.9498
14.000000 86.123 77.1321
14.300000 86.282 75.8952
14.500000 86.382 75.0741
14.750000 86.499 74.0686
15.000000 86.610 73.0947
15.250000 86.715 72.1638
15.500000 86.817 71.2727
15.750000 86.917 70.4169
16.000000 87.017 69.5852
16.250000 87.117 68.7643
16.500000 87.215 67.9485
16.750000 87.311 67.1311
17.000000 87.403 66.3153
17.250000 87.492 65.5046
17.500000 87.575 64.7045
17.750000 87.656 63.9213
18.000000 87.733 63.1562
18.250000 87.807 62.4103
18.500000 87.880 61.6803
18.750000 87.952 60.9633
19.000000 88.023 60.2569
19.250000 88.092 59.5587
19.500000 88.160 58.8689
19.750000 88.226 58.1872
20.000000 88.290 57.5144
20.299999 88.366 56.7181
20.600000 88.441 55.9326
20.900000 88.513 55.1564
21.200001 88.583 54.3886
21.400000 88.628 53.8824
21.799999 88.715 52.8871
22.000000 88.756 52.4002
22.400000 88.836 51.4516
22.700001 88.895 50.7607
23.000000 88.952 50.0829
23.299999 89.009 49.4126
23.600000 89.063 48.7468
24.000000 89.132 47.8669
24.299999 89.180 47.2183
24.700001 89.240 46.3772
25.000000 89.282 45.7664
25.400000 89.339 44.9732
25.799999 89.394 44.1907
26.200001 89.448 43.4094
26.500000 89.487 42.8260
26.900000 89.537 42.0593
27.200001 89.573 41.4954
27.600000 89.623 40.7533
28.000000 89.673 40.0067
28.500000 89.734 39.0557
29.000000 89.788 38.1152
29.500000 89.838 37.2311
30.000000 89.891 36.3986
30.400000 89.937 35.7352
30.700001 89.970 35.2308
31.100000 90.007 34.5750
31.500000 90.040 33.9836
32.000000 90.088 33.3615
32.500000 90.159 32.7604
33.000000 90.240 31.9903
33.500000 90.297 31.0223
34.000000 90.306 30.0765
34.500000 90.289 29.4099
35.000000 90.289 29.0242
35.500000 90.330 28.6508
36.000000 90.389 28.0457
36.500000 90.428 27.2263
37.000000 90.435 26.4019
37.500000 90.427 25.7126
38.200001 90.432 24.8832
38.700001 90.447 24.2529
39.500000 90.464 23.1945
40.000000 90.473 22.5796
40.599998 90.492 21.8751
41.200001 90.517 21.1503
41.799999 90.538 20.4194
42.500000 90.558 19.6257
43.099998 90.576 18.9996
43.700001 90.595 18.3876
44.400002 90.614 17.6793
45.000000 90.624 17.0929
45.500000 90.631 16.6196
46.200001 90.638 15.9626
46.799999 90.642 15.3940
47.500000 90.644 14.7136
48.200001 90.641 14.0073
48.700001 90.632 13.5145
49.400002 90.617 12.9111
50.000000 90.616 12.4652
50.799999 90.638 11.8141
51.500000 90.657 11.1279
52.200001 90.662 10.4399
53.000000 90.663 9.7378
53.799999 90.666 9.0739
54.500000 90.667 8.5074
55.200001 90.665 7.9642
56.000000 90.663 7.3513
57.000000 90.654 6.5922
58.000000 90.644 5.8571
59.000000 90.634 5.1256
60.000000 90.624 4.3967
60.799999 90.614 3.8236
61.500000 90.605 3.3389
62.200001 90.595 2.8669
63.000000 90.583 2.3331
64.000000 90.564 1.6832
65.000000 90.541 1.0490
66.000000 90.513 0.4454
67.000000 90.491 -0.1056
68.000000 90.479 -0.7129
69.000000 90.459 -1.3755
70.000000 90.435 -1.9977
71.000000 90.412 -2.5848
72.000000 90.390 -3.1542
73.000000 90.367 -3.7147
74.000000 90.340 -4.2558
75.000000 90.312 -4.7614
76.199997 90.281 -5.3505
77.500000 90.246 -5.9937
78.800003 90.206 -6.6180
80.000000 90.170 -7.1627
81.199997 90.135 -7.7046
82.500000 90.094 -8.3068
83.800003 90.044 -8.8718
85.000000 90.002 -9.3002
86.199997 89.972 -9.7262
87.500000 89.943 -10.2169
88.500000 89.919 -10.5864
90.000000 89.884 -11.0975
91.199997 89.861 -11.4944
92.500000 89.842 -11.9743
93.800003 89.819 -12.5270
95.000000 89.794 -13.0760
96.199997 89.762 -13.6455
97.500000 89.720 -14.2283
98.800003 89.678 -14.7711
100.000000 89.639 -15.2573
101.500000 89.587 -15.8315
103.000000 89.535 -16.3813
104.400002 89.484 -16.8739
106.000000 89.424 -17.4130
107.500000 89.367 -17.8978
109.000000 89.310 -18.3660
110.599998 89.250 -18.8704
112.000000 89.194 -19.3069
113.800003 89.123 -19.8325
115.000000 89.077 -20.1727
117.199997 88.991 -20.7797
118.000000 88.959 -20.9904
120.599998 88.853 -21.6533
122.000000 88.797 -22.0013
124.099998 88.715 -22.5045
125.000000 88.680 -22.7117
126.500000 88.623 -23.0490
128.000000 88.564 -23.3798
131.500000 88.415 -24.1412
132.000000 88.393 -24.2449
134.000000 88.310 -24.6371
136.000000 88.234 -25.0603
138.000000 88.155 -25.4951
140.000000 88.074 -25.8851
143.000000 87.953 -26.3911
145.000000 87.867 -26.6980
147.500000 87.747 -27.0609
150.000000 87.629 -27.3663
152.500000 87.534 -27.7241
155.000000 87.437 -28.0858
157.500000 87.333 -28.3800
160.000000 87.225 -28.6519
162.500000 87.115 -28.9088
165.000000 87.007 -29.1254
167.500000 86.896 -29.3019
170.000000 86.781 -29.4203
172.500000 86.666 -29.4684
175.000000 86.553 -29.4442
177.500000 86.444 -29.3403
180.000000 86.345 -29.1355
182.500000 86.265 -28.8243
185.000000 86.212 -28.4491
187.500000 86.194 -28.1221
190.000000 86.208 -27.9758
192.500000 86.237 -28.0961
195.000000 86.256 -28.4777
197.500000 86.242 -29.0294
200.000000 86.196 -29.6276
203.000000 86.115 -30.3257
206.000000 86.013 -30.9442
209.000000 85.897 -31.4185
212.000000 85.776 -31.7839
214.000000 85.694 -31.9851
218.000000 85.531 -32.3002
220.000000 85.451 -32.4213
224.000000 85.294 -32.6094
227.000000 85.179 -32.7156
230.000000 85.065 -32.8060
233.000000 84.953 -32.8829
236.000000 84.842 -32.9319
240.000000 84.697 -32.9460
243.000000 84.590 -32.9484
247.000000 84.452 -32.9603
250.000000 84.349 -32.9503
254.000000 84.207 -32.8519
258.000000 84.067 -32.7269
262.000000 83.931 -32.6048
265.000000 83.831 -32.4960
269.000000 83.699 -32.3360
272.000000 83.601 -32.2147
276.000000 83.472 -32.0345
280.000000 83.346 -31.8232
285.000000 83.189 -31.5215
290.000000 83.032 -31.1819
295.000000 82.878 -30.8052
300.000000 82.731 -30.3901
304.000000 82.616 -30.0344
307.000000 82.532 -29.7539
311.000000 82.423 -29.3598
315.000000 82.319 -28.9423
320.000000 82.196 -28.4000
325.000000 82.079 -27.8602
330.000000 81.970 -27.3433
335.000000 81.865 -26.8425
340.000000 81.762 -26.3633
345.000000 81.660 -25.8961
350.000000 81.556 -25.4291
355.000000 81.443 -24.9410
360.000000 81.329 -24.4138
365.000000 81.219 -23.8538
370.000000 81.112 -23.2573
375.000000 81.008 -22.6089
382.000000 80.872 -21.6304
387.000000 80.784 -20.8923
395.000000 80.666 -19.6848
400.000000 80.606 -18.9437
406.000000 80.547 -18.1504
412.000000 80.490 -17.4866
418.000000 80.424 -16.8951
425.000000 80.333 -16.1960
431.000000 80.247 -15.5459
437.000000 80.158 -14.8391
444.000000 80.049 -13.9495
450.000000 79.959 -13.1385
455.000000 79.896 -12.4460
462.000000 79.819 -11.4465
468.000000 79.756 -10.5645
475.000000 79.688 -9.5247
482.000000 79.626 -8.4792
487.000000 79.585 -7.7271
494.000000 79.534 -6.6678
500.000000 79.496 -5.7584
508.000000 79.453 -4.5516
515.000000 79.423 -3.4971
522.000000 79.399 -2.4484
530.000000 79.379 -1.2667
538.000000 79.365 -0.0929
545.000000 79.360 0.9355
552.000000 79.358 1.9401
560.000000 79.359 3.0467
570.000000 79.370 4.4091
580.000000 79.388 5.7500
590.000000 79.412 7.0693
600.000000 79.446 8.3495
608.000000 79.478 9.3475
615.000000 79.508 10.2057
622.000000 79.542 11.0464
630.000000 79.584 11.9849
640.000000 79.643 13.1313
650.000000 79.705 14.2456
660.000000 79.766 15.2985
670.000000 79.831 16.3280
680.000000 79.902 17.3356
690.000000 79.976 18.3010
700.000000 80.054 19.2368
710.000000 80.133 20.1506
720.000000 80.213 21.0332
730.000000 80.295 21.8771
740.000000 80.378 22.6869
750.000000 80.464 23.4728
762.000000 80.572 24.4000
775.000000 80.691 25.3617
788.000000 80.811 26.2738
800.000000 80.924 27.0725
812.000000 81.038 27.8348
825.000000 81.164 28.6253
838.000000 81.291 29.3716
850.000000 81.410 30.0198
862.000000 81.529 30.6454
875.000000 81.661 31.2879
885.000000 81.763 31.7465
900.000000 81.916 32.3809
912.000000 82.039 32.8517
925.000000 82.172 33.3250
938.000000 82.305 33.7578
950.000000 82.427 34.1227
962.000000 82.550 34.4447
975.000000 82.682 34.7515
988.000000 82.812 35.0215
1000.000000 82.931 35.2357
1015.000000 83.076 35.4597
1030.000000 83.217 35.6325
1044.000000 83.344 35.7440
1060.000000 83.485 35.8358
1075.000000 83.614 35.8928
1090.000000 83.737 35.9096
1106.000000 83.861 35.8867
1120.000000 83.965 35.8374
1138.000000 84.091 35.7450
1150.000000 84.170 35.6713
1172.000000 84.305 35.5244
1180.000000 84.351 35.4666
1206.000000 84.491 35.2593
1220.000000 84.560 35.1419
1241.000000 84.656 34.9727
1250.000000 84.694 34.9010
1265.000000 84.754 34.7821
1280.000000 84.811 34.6700
1315.000000 84.930 34.4467
1320.000000 84.946 34.4193
1340.000000 85.007 34.3195
1360.000000 85.063 34.2385
1380.000000 85.116 34.1782
1400.000000 85.165 34.1289
1430.000000 85.236 34.0907
1450.000000 85.280 34.0880
1475.000000 85.333 34.1015
1500.000000 85.384 34.1359
1525.000000 85.434 34.1956
1550.000000 85.481 34.2825
1575.000000 85.528 34.3857
1600.000000 85.575 34.5152
1625.000000 85.624 34.6656
1650.000000 85.674 34.8192
1675.000000 85.722 34.9755
1700.000000 85.770 35.1459
1725.000000 85.816 35.3358
1750.000000 85.863 35.5470
1775.000000 85.910 35.7774
1800.000000 85.959 36.0357
1825.000000 86.010 36.3329
1850.000000 86.066 36.6671
1875.000000 86.129 37.0262
1900.000000 86.202 37.4003
1925.000000 86.287 37.7608
1950.000000 86.382 38.0685
1975.000000 86.482 38.3062
2000.000000 86.582 38.4785
2030.000000 86.698 38.6274
2060.000000 86.809 38.7533
2090.000000 86.917 38.8836
2120.000000 87.028 39.0197
2140.000000 87.104 39.1119
2180.000000 87.265 39.2751
2200.000000 87.349 39.3320
2240.000000 87.525 39.3814
2270.000000 87.660 39.3670
2300.000000 87.797 39.3171
2330.000000 87.940 39.2328
2360.000000 88.088 39.1105
2400.000000 88.300 38.8614
2430.000000 88.475 38.5636
2470.000000 88.724 37.9082
2500.000000 88.912 37.1551
2540.000000 89.141 35.7816
2580.000000 89.323 34.0659
2620.000000 89.442 32.1487
2650.000000 89.489 30.6638
2690.000000 89.500 28.7092
2720.000000 89.470 27.3083
2760.000000 89.382 25.5932
2800.000000 89.247 24.1415
2850.000000 89.030 22.8249
2900.000000 88.795 22.1124
2950.000000 88.578 21.9374
3000.000000 88.398 22.1584
3040.000000 88.288 22.5160
3070.000000 88.227 22.8459
3110.000000 88.171 23.3203
3150.000000 88.143 23.7847
3200.000000 88.139 24.2845
3250.000000 88.160 24.6600
3300.000000 88.199 24.9008
3350.000000 88.246 24.9851
3400.000000 88.295 24.9066
3450.000000 88.338 24.6805
3500.000000 88.370 24.3369
3550.000000 88.387 23.9062
3600.000000 88.389 23.4176
3650.000000 88.374 22.9016
3700.000000 88.343 22.3853
3750.000000 88.298 21.8940
3820.000000 88.216 21.2712
3870.000000 88.149 20.8806
3950.000000 88.028 20.3541
4000.000000 87.946 20.0809
4060.000000 87.843 19.8082
4120.000000 87.736 19.6027
4180.000000 87.625 19.4602
4250.000000 87.493 19.3750
4310.000000 87.379 19.3668
4370.000000 87.264 19.4202
4440.000000 87.130 19.5607
4500.000000 87.017 19.7437
4550.000000 86.923 19.9352
4620.000000 86.796 20.2600
4680.000000 86.689 20.5934
4750.000000 86.568 21.0439
4820.000000 86.451 21.5560
4870.000000 86.371 21.9553
4940.000000 86.262 22.5688
5000.000000 86.173 23.1405
5080.000000 86.062 23.9539
5150.000000 85.971 24.7213
5220.000000 85.885 25.5433
5300.000000 85.795 26.5532
5380.000000 85.712 27.6620
5450.000000 85.647 28.7592
5520.000000 85.601 30.0267
5600.000000 85.601 31.6630
5700.000000 85.714 33.5209
5800.000000 85.869 34.7206
5900.000000 86.012 35.5510
6000.000000 86.139 36.2039
6080.000000 86.236 36.6925
6150.000000 86.327 37.0911
6220.000000 86.426 37.4332
6300.000000 86.546 37.7267
6400.000000 86.702 37.9185
6500.000000 86.859 37.9047
6600.000000 87.009 37.7032
6700.000000 87.146 37.3417
6800.000000 87.267 36.8602
6900.000000 87.369 36.3090
7000.000000 87.455 35.7733
7100.000000 87.548 35.3642
7200.000000 87.689 34.9067
7300.000000 87.851 34.0521
7400.000000 87.995 32.9390
7500.000000 88.135 31.6851
7620.000000 88.316 29.8825
7750.000000 88.520 27.3467
7880.000000 88.705 23.9930
8000.000000 88.813 20.0532
8120.000000 88.804 15.3244
8250.000000 88.601 9.5780
8380.000000 88.158 3.7281
8500.000000 87.532 -1.1724
8620.000000 86.734 -5.1265
8750.000000 85.738 -8.0537
8850.000000 84.928 -9.2970
9000.000000 83.715 -9.6397
9120.000000 82.793 -8.8104
9250.000000 81.875 -7.0540
9380.000000 81.060 -4.6281
9500.000000 80.404 -1.9766
9620.000000 79.838 0.9277
9750.000000 79.322 4.2445
9880.000000 78.901 7.6422
10000.000000 78.591 10.7891
10150.000000 78.304 14.7004
10300.000000 78.131 18.4923
10440.000000 78.074 21.7757
10600.000000 78.125 25.0196
10750.000000 78.262 27.3914
10900.000000 78.450 28.9847
11060.000000 78.662 29.8102
11200.000000 78.827 29.9019
11380.000000 78.993 29.4287
11500.000000 79.083 28.8874
11720.000000 79.256 27.4705
11800.000000 79.332 26.7515
12060.000000 79.605 22.9755
12200.000000 79.712 19.6681
12410.000000 79.656 12.9948
12500.000000 79.510 9.7221
12650.000000 79.075 4.2338
12800.000000 78.413 -0.6839
13150.000000 76.305 -7.4800
13200.000000 75.980 -7.8643
13400.000000 74.715 -8.1628
13600.000000 73.573 -6.8895
13800.000000 72.607 -4.5077
14000.000000 71.842 -1.3809
14300.000000 71.120 3.9299
14500.000000 70.940 7.4615
14750.000000 71.063 11.3495
15000.000000 71.615 14.4009
15250.000000 72.685 15.7191
15500.000000 74.291 14.0891
15750.000000 76.406 7.9274
16000.000000 78.810 -5.1743
16250.000000 81.044 -27.5807
16500.000000 82.688 -60.4862
16750.000000 83.296 -105.0951
17000.000000 82.082 -157.9981
17250.000000 78.511 155.9501
17500.000000 73.168 123.5771
17750.000000 67.268 96.6752
18000.000000 61.737 67.9908
18250.000000 57.039 35.8215
18500.000000 53.856 1.7795
18750.000000 52.528 -31.8285
19000.000000 52.062 -63.1007
19250.000000 51.666 -92.1732
19500.000000 50.932 -119.8901
19750.000000 49.809 -144.1263
