* Measurement data measured by REW V5.20.9
* Source: USB-C to 3.5mm Headphone Jack Adapter, USB-C to 3.5mm Headphone Jack Adapter, 0, volume: 0.138
* Format: 256k Log Swept Sine, 1 sweep at -12.0 dBFS with no timing reference
* Dated: 11/06/2023 12:48:36 PM
* REW Settings:
*  C-weighting compensation: Off
*  Target level: 75.0 dB
* Note: ; 
* Measurement: U12t MX R
* Smoothing: 1/24 octave
* Frequency Step: 1/48 octave
* Start Frequency: 1.000 Hz
*
* Freq(Hz) SPL(dB) Phase(degrees)
1.000000 60.433 112.0917
1.015000 60.236 111.5818
1.030000 60.030 111.1517
1.044000 59.829 110.8036
1.060000 59.591 110.4709
1.075000 59.359 110.2245
1.090000 59.120 110.0435
1.106000 58.860 109.9252
1.120000 58.628 109.8869
1.138000 58.325 109.9300
1.150000 58.120 110.0181
1.172000 57.744 110.3074
1.180000 57.606 110.4546
1.206000 57.161 111.0931
1.220000 56.924 111.5412
1.241000 56.573 112.3549
1.250000 56.425 112.7569
1.265000 56.182 113.4997
1.280000 55.945 114.3354
1.315000 55.421 116.6585
1.320000 55.350 117.0342
1.340000 55.076 118.6497
1.360000 54.811 120.5057
1.380000 54.529 122.7401
1.400000 54.233 125.3158
1.430000 53.773 129.7159
1.450000 53.465 132.9382
1.475000 53.087 137.2078
1.500000 52.727 141.6599
1.525000 52.395 146.2023
1.550000 52.101 150.7425
1.575000 51.856 155.1883
1.600000 51.671 159.4473
1.625000 51.555 163.4273
1.650000 51.520 167.0358
1.675000 51.575 170.1806
1.700000 51.737 172.8851
1.725000 52.019 175.4240
1.750000 52.406 177.8101
1.775000 52.881 -179.9625
1.800000 53.426 -177.8994
1.825000 54.025 -176.0063
1.850000 54.660 -174.2889
1.875000 55.315 -172.7531
1.900000 55.972 -171.4045
1.925000 56.614 -170.2489
1.950000 57.224 -169.2920
1.975000 57.785 -168.5394
2.000000 58.281 -167.9971
2.030000 58.771 -167.6491
2.060000 59.204 -167.7937
2.090000 59.601 -168.4057
2.120000 59.965 -169.4059
2.140000 60.192 -170.2491
2.180000 60.610 -172.2534
2.200000 60.804 -173.3674
2.240000 61.167 -175.7016
2.270000 61.421 -177.4527
2.300000 61.663 -179.1160
2.330000 61.898 179.3877
2.360000 62.127 178.1340
2.400000 62.411 176.6154
2.430000 62.602 175.4946
2.470000 62.830 174.0250
2.500000 62.984 172.9421
2.540000 63.170 171.5246
2.580000 63.337 170.1383
2.620000 63.489 168.7843
2.650000 63.596 167.7905
2.690000 63.731 166.4953
2.720000 63.824 165.5340
2.760000 63.930 164.2475
2.800000 64.017 162.9728
2.850000 64.105 161.4243
2.900000 64.175 159.9600
2.950000 64.234 158.6163
3.000000 64.287 157.4299
3.040000 64.330 156.6160
3.070000 64.355 156.0690
3.110000 64.375 155.4123
3.150000 64.386 154.8396
3.200000 64.393 154.2432
3.250000 64.403 153.7815
3.300000 64.423 153.4563
3.350000 64.465 153.2696
3.400000 64.528 153.2579
3.450000 64.599 153.4852
3.500000 64.679 153.8872
3.550000 64.773 154.3927
3.600000 64.885 154.9304
3.650000 65.018 155.4291
3.700000 65.177 155.8177
3.750000 65.366 156.1411
3.820000 65.676 156.6136
3.870000 65.923 156.9232
3.950000 66.344 157.2849
4.000000 66.614 157.3791
4.060000 66.939 157.3149
4.120000 67.283 157.1061
4.180000 67.642 156.7670
4.250000 68.067 156.1997
4.310000 68.424 155.5603
4.370000 68.762 154.7740
4.440000 69.136 153.6231
4.500000 69.450 152.4351
4.550000 69.704 151.3432
4.620000 70.042 149.7206
4.680000 70.313 148.2997
4.750000 70.603 146.6463
4.820000 70.870 144.9033
4.870000 71.047 143.6178
4.940000 71.275 141.7982
5.000000 71.453 140.2525
5.080000 71.666 138.2488
5.150000 71.826 136.4853
5.220000 71.963 134.7321
5.300000 72.098 132.7982
5.380000 72.214 131.0026
5.450000 72.298 129.5462
5.520000 72.362 128.1638
5.600000 72.419 126.7013
5.700000 72.480 125.0950
5.800000 72.535 123.7774
5.900000 72.573 122.7217
6.000000 72.616 121.8817
6.080000 72.667 121.3396
6.150000 72.720 121.0020
6.220000 72.779 120.7722
6.300000 72.859 120.5828
6.400000 72.984 120.3567
6.500000 73.144 120.1865
6.600000 73.331 120.0685
6.700000 73.535 119.8720
6.800000 73.752 119.5163
6.900000 73.991 119.0630
7.000000 74.234 118.4950
7.100000 74.466 117.7867
7.200000 74.695 116.9184
7.300000 74.916 115.9352
7.400000 75.119 114.8939
7.500000 75.299 113.7798
7.620000 75.492 112.3505
7.750000 75.670 110.8461
7.880000 75.810 109.3956
8.000000 75.913 108.1269
8.120000 76.000 107.0287
8.250000 76.071 106.0123
8.380000 76.134 105.1814
8.500000 76.197 104.6119
8.620000 76.261 104.2234
8.750000 76.347 103.9174
8.850000 76.430 103.7673
9.000000 76.578 103.6547
9.120000 76.718 103.5219
9.250000 76.897 103.3558
9.380000 77.090 103.1130
9.500000 77.274 102.7477
9.620000 77.467 102.2709
9.750000 77.671 101.6333
9.880000 77.862 100.8497
10.000000 78.030 100.0189
10.150000 78.215 98.9219
10.300000 78.373 97.7364
10.440000 78.498 96.6494
10.600000 78.609 95.4596
10.750000 78.693 94.4308
10.900000 78.762 93.5500
11.060000 78.823 92.7526
11.200000 78.879 92.1941
11.380000 78.953 91.6497
11.500000 79.013 91.3472
11.720000 79.145 90.9250
11.800000 79.201 90.7650
12.060000 79.410 90.2254
12.200000 79.531 89.8513
12.410000 79.719 89.1758
12.500000 79.797 88.8428
12.650000 79.923 88.2228
12.800000 80.039 87.5682
13.150000 80.269 85.9802
13.200000 80.297 85.7639
13.400000 80.401 84.9333
13.600000 80.499 84.2085
13.800000 80.596 83.5742
14.000000 80.702 83.0227
14.300000 80.880 82.2273
14.500000 81.011 81.6592
14.750000 81.182 80.8387
15.000000 81.345 79.8759
15.250000 81.489 78.8196
15.500000 81.607 77.7338
15.750000 81.698 76.7162
16.000000 81.773 75.8538
16.250000 81.846 75.1608
16.500000 81.929 74.6234
16.750000 82.033 74.1757
17.000000 82.158 73.7096
17.250000 82.298 73.1615
17.500000 82.444 72.4877
17.750000 82.581 71.6840
18.000000 82.702 70.8092
18.250000 82.804 69.9203
18.500000 82.889 69.0734
18.750000 82.963 68.3181
19.000000 83.035 67.6540
19.250000 83.111 67.0605
19.500000 83.194 66.5073
19.750000 83.284 65.9489
20.000000 83.375 65.3649
20.299999 83.483 64.6259
20.600000 83.585 63.8633
20.900000 83.678 63.1095
21.200001 83.767 62.3882
21.400000 83.825 61.9272
21.799999 83.942 61.0281
22.000000 84.001 60.5781
22.400000 84.117 59.6641
22.700001 84.199 58.9729
23.000000 84.276 58.2939
23.299999 84.350 57.6408
23.600000 84.424 57.0153
24.000000 84.525 56.2023
24.299999 84.602 55.5850
24.700001 84.703 54.7333
25.000000 84.774 54.0813
25.400000 84.859 53.2241
25.799999 84.938 52.4116
26.200001 85.014 51.6488
26.500000 85.071 51.0988
26.900000 85.146 50.3826
27.200001 85.201 49.8586
27.600000 85.272 49.1891
28.000000 85.342 48.5602
28.500000 85.435 47.8137
29.000000 85.534 47.0644
29.500000 85.635 46.2867
30.000000 85.738 45.4737
30.400000 85.820 44.7774
30.700001 85.881 44.2093
31.100000 85.953 43.3821
31.500000 86.007 42.5112
32.000000 86.046 41.4925
32.500000 86.072 40.6831
33.000000 86.115 40.0508
33.500000 86.188 39.4029
34.000000 86.268 38.5850
34.500000 86.326 37.6551
35.000000 86.358 36.8187
35.500000 86.390 36.1928
36.000000 86.450 35.6754
36.500000 86.536 35.0627
37.000000 86.623 34.2599
37.500000 86.687 33.3591
38.200001 86.742 32.2381
38.700001 86.785 31.5944
39.500000 86.885 30.5503
40.000000 86.947 29.7670
40.599998 86.997 28.7741
41.200001 87.022 27.8863
41.799999 87.044 27.1664
42.500000 87.082 26.4297
43.099998 87.119 25.7756
43.700001 87.144 25.1277
44.400002 87.168 24.4964
45.000000 87.205 23.9840
45.500000 87.243 23.4393
46.200001 87.269 22.5064
46.799999 87.265 21.7516
47.500000 87.269 20.9150
48.200001 87.261 19.8517
48.700001 87.212 19.1096
49.400002 87.123 18.6762
50.000000 87.136 18.7687
50.799999 87.304 18.3565
51.500000 87.432 17.1286
52.200001 87.474 15.8583
53.000000 87.503 14.8447
53.799999 87.552 13.9546
54.500000 87.584 13.2099
55.200001 87.611 12.5666
56.000000 87.639 11.8694
57.000000 87.662 11.0324
58.000000 87.687 10.1789
59.000000 87.704 9.1972
60.000000 87.709 8.2183
60.799999 87.717 7.4795
61.500000 87.730 6.8644
62.200001 87.750 6.2451
63.000000 87.767 5.5094
64.000000 87.768 4.6609
65.000000 87.759 3.9612
66.000000 87.753 3.2973
67.000000 87.748 2.5908
68.000000 87.744 1.7875
69.000000 87.740 0.9334
70.000000 87.744 0.0481
71.000000 87.742 -0.8484
72.000000 87.734 -1.5950
73.000000 87.727 -2.1952
74.000000 87.718 -2.6295
75.000000 87.732 -2.9878
76.199997 87.762 -3.6777
77.500000 87.764 -4.6877
78.800003 87.752 -5.6525
80.000000 87.769 -6.5390
81.199997 87.785 -7.4282
82.500000 87.823 -8.2712
83.800003 87.840 -9.2239
85.000000 87.826 -9.9394
86.199997 87.806 -10.5741
87.500000 87.791 -11.1747
88.500000 87.799 -11.7207
90.000000 87.802 -12.7582
91.199997 87.778 -13.6149
92.500000 87.737 -14.3405
93.800003 87.720 -15.0057
95.000000 87.709 -15.7550
96.199997 87.691 -16.5344
97.500000 87.681 -17.3436
98.800003 87.685 -18.1961
100.000000 87.669 -19.0343
101.500000 87.611 -19.7694
103.000000 87.573 -20.2753
104.400002 87.544 -20.8455
106.000000 87.506 -21.5939
107.500000 87.475 -22.3355
109.000000 87.449 -23.0893
110.599998 87.422 -23.8537
112.000000 87.395 -24.4790
113.800003 87.362 -25.2563
115.000000 87.342 -25.7767
117.199997 87.313 -26.7215
118.000000 87.303 -27.0573
120.599998 87.258 -28.1422
122.000000 87.224 -28.7551
124.099998 87.165 -29.6820
125.000000 87.145 -30.0702
126.500000 87.121 -30.7123
128.000000 87.102 -31.3170
131.500000 87.053 -32.6264
132.000000 87.044 -32.8267
134.000000 87.001 -33.6304
136.000000 86.963 -34.3349
138.000000 86.936 -35.0383
140.000000 86.891 -35.7974
143.000000 86.815 -36.8751
145.000000 86.786 -37.4936
147.500000 86.758 -37.9941
150.000000 86.741 -38.4630
152.500000 86.672 -39.5768
155.000000 86.576 -40.6812
157.500000 86.526 -41.5804
160.000000 86.486 -42.3083
162.500000 86.432 -42.9888
165.000000 86.379 -43.6824
167.500000 86.336 -44.3312
170.000000 86.299 -44.9167
172.500000 86.268 -45.4862
175.000000 86.249 -46.1158
177.500000 86.232 -46.8019
180.000000 86.209 -47.5025
182.500000 86.183 -48.2210
185.000000 86.152 -48.9499
187.500000 86.117 -49.6660
190.000000 86.080 -50.3653
192.500000 86.044 -51.0446
195.000000 86.005 -51.6973
197.500000 85.962 -52.3180
200.000000 85.921 -52.9199
203.000000 85.883 -53.6889
206.000000 85.849 -54.4630
209.000000 85.813 -55.1817
212.000000 85.774 -55.8853
214.000000 85.747 -56.3566
218.000000 85.695 -57.2759
220.000000 85.671 -57.7247
224.000000 85.624 -58.6175
227.000000 85.589 -59.2861
230.000000 85.556 -59.9384
233.000000 85.523 -60.5692
236.000000 85.490 -61.2000
240.000000 85.450 -62.0331
243.000000 85.418 -62.6552
247.000000 85.363 -63.5890
250.000000 85.325 -64.2664
254.000000 85.311 -64.9585
258.000000 85.296 -65.6573
262.000000 85.268 -66.4453
265.000000 85.245 -67.0412
269.000000 85.215 -67.8112
272.000000 85.193 -68.3760
276.000000 85.166 -69.1337
280.000000 85.138 -69.8921
285.000000 85.106 -70.8139
290.000000 85.077 -71.7097
295.000000 85.051 -72.5822
300.000000 85.029 -73.4317
304.000000 85.008 -74.0937
307.000000 84.992 -74.5818
311.000000 84.976 -75.2178
315.000000 84.967 -75.8275
320.000000 84.964 -76.5752
325.000000 84.973 -77.3271
330.000000 84.992 -78.1198
335.000000 85.015 -78.9962
340.000000 85.038 -79.9450
345.000000 85.064 -80.9500
350.000000 85.085 -81.9611
355.000000 85.080 -82.8855
360.000000 85.072 -83.7826
365.000000 85.074 -84.6920
370.000000 85.078 -85.6099
375.000000 85.083 -86.5230
382.000000 85.093 -87.7763
387.000000 85.101 -88.6678
395.000000 85.117 -90.0957
400.000000 85.129 -90.9743
406.000000 85.146 -92.0367
412.000000 85.164 -93.0994
418.000000 85.181 -94.1532
425.000000 85.202 -95.3825
431.000000 85.221 -96.4425
437.000000 85.240 -97.5080
444.000000 85.252 -98.7359
450.000000 85.261 -99.7865
455.000000 85.286 -100.6904
462.000000 85.329 -101.9634
468.000000 85.357 -103.0388
475.000000 85.384 -104.2887
482.000000 85.410 -105.5428
487.000000 85.429 -106.4424
494.000000 85.455 -107.7050
500.000000 85.478 -108.7845
508.000000 85.507 -110.2144
515.000000 85.530 -111.4619
522.000000 85.552 -112.7100
530.000000 85.576 -114.1386
538.000000 85.596 -115.5504
545.000000 85.607 -116.7783
552.000000 85.621 -118.0060
560.000000 85.649 -119.4009
570.000000 85.678 -121.1280
580.000000 85.701 -122.8458
590.000000 85.720 -124.5643
600.000000 85.733 -126.2664
608.000000 85.741 -127.6073
615.000000 85.746 -128.7693
622.000000 85.749 -129.9148
630.000000 85.750 -131.2023
640.000000 85.745 -132.7928
650.000000 85.734 -134.3516
660.000000 85.737 -135.8535
670.000000 85.736 -137.3207
680.000000 85.728 -138.7561
690.000000 85.718 -140.1596
700.000000 85.707 -141.5251
710.000000 85.695 -142.8558
720.000000 85.682 -144.1450
730.000000 85.667 -145.3928
740.000000 85.651 -146.6260
750.000000 85.637 -147.8298
762.000000 85.623 -149.1356
775.000000 85.608 -150.4969
788.000000 85.595 -151.8272
800.000000 85.585 -153.0088
812.000000 85.579 -154.1369
825.000000 85.576 -155.3067
838.000000 85.580 -156.4353
850.000000 85.587 -157.4471
862.000000 85.590 -158.4210
875.000000 85.599 -159.4277
885.000000 85.611 -160.1736
900.000000 85.636 -161.2652
912.000000 85.660 -162.1243
925.000000 85.689 -163.0262
938.000000 85.719 -163.8990
950.000000 85.752 -164.6842
962.000000 85.794 -165.4791
975.000000 85.842 -166.3399
988.000000 85.890 -167.1832
1000.000000 85.937 -167.9503
1015.000000 85.997 -168.9058
1030.000000 86.060 -169.8566
1044.000000 86.124 -170.7364
1060.000000 86.194 -171.7473
1075.000000 86.256 -172.7003
1090.000000 86.321 -173.6455
1106.000000 86.390 -174.6487
1120.000000 86.451 -175.5237
1138.000000 86.524 -176.6404
1150.000000 86.571 -177.3724
1172.000000 86.662 -178.6798
1180.000000 86.693 -179.1465
1206.000000 86.791 179.3658
1220.000000 86.842 178.5897
1241.000000 86.918 177.4708
1250.000000 86.949 177.0026
1265.000000 86.998 176.2252
1280.000000 87.046 175.4705
1315.000000 87.158 173.8242
1320.000000 87.174 173.6003
1340.000000 87.236 172.7327
1360.000000 87.299 171.9126
1380.000000 87.365 171.1412
1400.000000 87.431 170.4144
1430.000000 87.534 169.3983
1450.000000 87.603 168.7661
1475.000000 87.696 168.0210
1500.000000 87.794 167.3288
1525.000000 87.898 166.6833
1550.000000 88.006 166.0720
1575.000000 88.124 165.4945
1600.000000 88.249 164.9422
1625.000000 88.379 164.4138
1650.000000 88.516 163.8986
1675.000000 88.663 163.3770
1700.000000 88.818 162.8483
1725.000000 88.981 162.3105
1750.000000 89.152 161.7524
1775.000000 89.329 161.1633
1800.000000 89.514 160.5321
1825.000000 89.707 159.8484
1850.000000 89.907 159.1017
1875.000000 90.110 158.2880
1900.000000 90.318 157.3927
1925.000000 90.529 156.4069
1950.000000 90.742 155.3169
1975.000000 90.952 154.1078
2000.000000 91.159 152.7774
2030.000000 91.398 151.0161
2060.000000 91.622 149.0699
2090.000000 91.826 146.9406
2120.000000 92.003 144.6382
2140.000000 92.102 143.0187
2180.000000 92.251 139.6230
2200.000000 92.298 137.8658
2240.000000 92.329 134.2991
2270.000000 92.295 131.6406
2300.000000 92.213 129.0560
2330.000000 92.085 126.5947
2360.000000 91.913 124.3093
2400.000000 91.625 121.6197
2430.000000 91.371 119.9184
2470.000000 90.996 118.1329
2500.000000 90.699 117.1688
2540.000000 90.301 116.3614
2580.000000 89.924 116.0402
2620.000000 89.580 116.0930
2650.000000 89.344 116.2963
2690.000000 89.058 116.7196
2720.000000 88.860 117.1191
2760.000000 88.612 117.7501
2800.000000 88.381 118.5123
2850.000000 88.119 119.6738
2900.000000 87.896 121.0662
2950.000000 87.720 122.6342
3000.000000 87.591 124.2814
3040.000000 87.516 125.6050
3070.000000 87.473 126.6083
3110.000000 87.432 127.9767
3150.000000 87.409 129.3942
3200.000000 87.411 131.2370
3250.000000 87.453 133.1476
3300.000000 87.542 135.1002
3350.000000 87.681 137.0296
3400.000000 87.872 138.8782
3450.000000 88.117 140.5916
3500.000000 88.419 142.0863
3550.000000 88.772 143.2665
3600.000000 89.167 144.0336
3650.000000 89.593 144.2985
3700.000000 90.027 143.9939
3750.000000 90.446 143.0972
3820.000000 90.961 140.9049
3870.000000 91.251 138.8054
3950.000000 91.548 134.9709
4000.000000 91.631 132.5392
4060.000000 91.644 129.8128
4120.000000 91.588 127.4165
4180.000000 91.494 125.3820
4250.000000 91.364 123.4136
4310.000000 91.251 121.9946
4370.000000 91.145 120.7418
4440.000000 91.036 119.3952
4500.000000 90.955 118.2703
4550.000000 90.898 117.3041
4620.000000 90.828 115.8240
4680.000000 90.769 114.3720
4750.000000 90.684 112.3984
4820.000000 90.554 110.0890
4870.000000 90.415 108.2708
4940.000000 90.129 105.6547
5000.000000 89.787 103.5891
5080.000000 89.209 101.5757
5150.000000 88.642 100.8231
5220.000000 88.089 101.0129
5300.000000 87.537 102.0537
5380.000000 87.093 103.5235
5450.000000 86.777 104.9089
5520.000000 86.509 106.2871
5600.000000 86.237 107.8283
5700.000000 85.912 109.7480
5800.000000 85.563 111.9125
5900.000000 85.211 115.0650
6000.000000 85.065 119.1534
6080.000000 85.117 122.0039
6150.000000 85.201 124.0314
6220.000000 85.293 125.8360
6300.000000 85.419 127.7562
6400.000000 85.619 129.9369
6500.000000 85.870 131.7772
6600.000000 86.166 133.1738
6700.000000 86.495 134.0028
6800.000000 86.828 134.1029
6900.000000 87.111 133.3821
7000.000000 87.279 131.9565
7100.000000 87.271 130.3023
7200.000000 87.086 129.2829
7300.000000 86.856 129.5650
7400.000000 86.751 130.4517
7500.000000 86.711 130.7896
7620.000000 86.555 130.7941
7750.000000 86.267 131.4505
7880.000000 85.960 132.8999
8000.000000 85.687 134.7195
8120.000000 85.420 136.9787
8250.000000 85.150 139.9919
8380.000000 84.928 143.6005
8500.000000 84.796 147.3531
8620.000000 84.755 151.3315
8750.000000 84.823 155.6343
8850.000000 84.949 158.7450
9000.000000 85.218 162.8187
9120.000000 85.460 165.4721
9250.000000 85.703 167.7781
9380.000000 85.895 169.7253
9500.000000 86.028 171.4863
9620.000000 86.145 173.3940
9750.000000 86.300 175.6451
9880.000000 86.528 177.8815
10000.000000 86.820 179.6093
10150.000000 87.277 -179.2582
10300.000000 87.748 -179.9574
10440.000000 88.051 177.3859
10600.000000 88.035 172.4506
10750.000000 87.548 167.4298
10900.000000 86.616 163.7383
11060.000000 85.267 162.5107
11200.000000 83.938 164.0347
11380.000000 82.218 169.3371
11500.000000 81.153 174.7549
11720.000000 79.573 -172.3653
11800.000000 79.158 -167.1039
12060.000000 78.388 -149.4729
12200.000000 78.288 -140.0225
12410.000000 78.533 -126.3276
12500.000000 78.777 -120.8002
12650.000000 79.355 -112.2098
12800.000000 80.138 -104.5515
13150.000000 82.720 -92.2411
13200.000000 83.153 -91.4308
13400.000000 84.834 -91.6368
13600.000000 86.053 -97.6641
13800.000000 86.413 -107.0240
14000.000000 85.920 -114.9449
14300.000000 84.441 -118.9121
14500.000000 83.552 -117.3594
14750.000000 82.877 -113.3370
15000.000000 82.757 -108.9854
15250.000000 83.164 -106.2157
15500.000000 83.876 -106.7017
15750.000000 84.644 -110.7740
16000.000000 85.377 -118.2446
16250.000000 85.998 -130.1394
16500.000000 86.051 -146.9968
16750.000000 85.243 -164.8230
17000.000000 83.877 179.6108
17250.000000 82.360 165.4935
17500.000000 80.793 151.2583
17750.000000 79.109 136.6720
18000.000000 77.340 121.6777
18250.000000 75.566 105.3853
18500.000000 73.764 86.6500
18750.000000 71.774 65.1613
19000.000000 69.445 41.6311
19250.000000 66.809 16.2949
19500.000000 63.986 -11.6851
19750.000000 61.093 -40.3506
