* Measurement data measured by REW V5.20.9
* Source: USB-C to 3.5mm Headphone Jack Adapter, USB-C to 3.5mm Headphone Jack Adapter, 0, volume: 0.138
* Format: 256k Log Swept Sine, 1 sweep at -12.0 dBFS with no timing reference
* Dated: 11/06/2023 12:59:32 PM
* REW Settings:
*  C-weighting compensation: Off
*  Target level: 75.0 dB
* Note: ; 
* Measurement: U12t M15 L
* Smoothing: 1/24 octave
* Frequency Step: 1/48 octave
* Start Frequency: 1.000 Hz
*
* Freq(Hz) SPL(dB) Phase(degrees)
1.000000 59.318 -120.1982
1.015000 59.594 -120.4739
1.030000 59.865 -120.8222
1.044000 60.115 -121.2128
1.060000 60.396 -121.7302
1.075000 60.657 -122.2782
1.090000 60.914 -122.8809
1.106000 61.184 -123.5774
1.120000 61.418 -124.2269
1.138000 61.715 -125.1087
1.150000 61.910 -125.7211
1.172000 62.264 -126.8838
1.180000 62.391 -127.3164
1.206000 62.800 -128.7444
1.220000 63.017 -129.5193
1.241000 63.339 -130.6764
1.250000 63.475 -131.1670
1.265000 63.701 -131.9728
1.280000 63.926 -132.7586
1.315000 64.442 -134.4817
1.320000 64.515 -134.7120
1.340000 64.806 -135.5849
1.360000 65.093 -136.3848
1.380000 65.376 -137.1485
1.400000 65.655 -137.8824
1.430000 66.065 -138.9364
1.450000 66.333 -139.6141
1.475000 66.663 -140.4402
1.500000 66.987 -141.2507
1.525000 67.306 -142.0538
1.550000 67.619 -142.8576
1.575000 67.928 -143.6702
1.600000 68.232 -144.4998
1.625000 68.532 -145.3545
1.650000 68.828 -146.2426
1.675000 69.120 -147.1720
1.700000 69.409 -148.1470
1.725000 69.692 -149.1575
1.750000 69.970 -150.1980
1.775000 70.243 -151.2630
1.800000 70.511 -152.3475
1.825000 70.774 -153.4463
1.850000 71.034 -154.5541
1.875000 71.289 -155.6657
1.900000 71.540 -156.7760
1.925000 71.788 -157.8796
1.950000 72.033 -158.9715
1.975000 72.274 -160.0464
2.000000 72.512 -161.0991
2.030000 72.794 -162.3277
2.060000 73.071 -163.5350
2.090000 73.342 -164.7275
2.120000 73.607 -165.9066
2.140000 73.781 -166.6859
2.180000 74.122 -168.2302
2.200000 74.290 -168.9961
2.240000 74.619 -170.5173
2.270000 74.861 -171.6508
2.300000 75.098 -172.7794
2.330000 75.333 -173.9047
2.360000 75.564 -175.0278
2.400000 75.865 -176.5163
2.430000 76.086 -177.6242
2.470000 76.373 -179.0908
2.500000 76.583 179.8163
2.540000 76.858 178.3678
2.580000 77.127 176.9279
2.620000 77.389 175.4954
2.650000 77.582 174.4251
2.690000 77.835 173.0026
2.720000 78.021 171.9363
2.760000 78.263 170.5128
2.800000 78.498 169.0916
2.850000 78.784 167.3254
2.900000 79.061 165.5794
2.950000 79.331 163.8627
3.000000 79.592 162.1844
3.040000 79.797 160.8757
3.070000 79.947 159.9144
3.110000 80.142 158.6567
3.150000 80.332 157.4226
3.200000 80.562 155.9072
3.250000 80.785 154.4147
3.300000 81.002 152.9373
3.350000 81.212 151.4670
3.400000 81.417 149.9971
3.450000 81.614 148.5299
3.500000 81.805 147.0732
3.550000 81.989 145.6348
3.600000 82.168 144.2227
3.650000 82.342 142.8446
3.700000 82.510 141.5086
3.750000 82.674 140.2168
3.820000 82.893 138.4708
3.870000 83.043 137.2625
3.950000 83.274 135.3845
4.000000 83.414 134.2386
4.060000 83.576 132.8849
4.120000 83.733 131.5562
4.180000 83.883 130.2577
4.250000 84.052 128.7876
4.310000 84.192 127.5714
4.370000 84.329 126.4008
4.440000 84.485 125.0977
4.500000 84.614 124.0307
4.550000 84.718 123.1728
4.620000 84.862 122.0132
4.680000 84.983 121.0520
4.750000 85.124 119.9654
4.820000 85.262 118.9271
4.870000 85.359 118.2126
4.940000 85.493 117.2450
5.000000 85.609 116.4411
5.080000 85.763 115.4011
5.150000 85.898 114.5336
5.220000 86.033 113.6997
5.300000 86.187 112.7741
5.380000 86.342 111.8623
5.450000 86.479 111.0782
5.520000 86.617 110.3154
5.600000 86.775 109.4572
5.700000 86.972 108.3835
5.800000 87.169 107.2979
5.900000 87.366 106.2134
6.000000 87.560 105.1209
6.080000 87.713 104.2346
6.150000 87.844 103.4509
6.220000 87.975 102.6609
6.300000 88.120 101.7510
6.400000 88.296 100.6039
6.500000 88.464 99.4397
6.600000 88.626 98.2637
6.700000 88.780 97.0909
6.800000 88.925 95.9282
6.900000 89.061 94.7667
7.000000 89.190 93.6195
7.100000 89.312 92.4993
7.200000 89.425 91.3988
7.300000 89.531 90.3226
7.400000 89.632 89.2810
7.500000 89.727 88.2770
7.620000 89.834 87.1165
7.750000 89.946 85.9139
7.880000 90.053 84.7733
8.000000 90.149 83.7676
8.120000 90.244 82.7946
8.250000 90.347 81.7848
8.380000 90.449 80.8040
8.500000 90.543 79.9119
8.620000 90.638 79.0385
8.750000 90.740 78.0974
8.850000 90.817 77.3733
9.000000 90.933 76.2909
9.120000 91.022 75.4241
9.250000 91.117 74.4826
9.380000 91.209 73.5426
9.500000 91.291 72.6785
9.620000 91.370 71.8165
9.750000 91.452 70.8904
9.880000 91.531 69.9748
10.000000 91.602 69.1379
10.150000 91.688 68.1043
10.300000 91.770 67.0854
10.440000 91.845 66.1437
10.600000 91.928 65.0779
10.750000 92.004 64.0865
10.900000 92.076 63.0987
11.060000 92.151 62.0513
11.200000 92.212 61.1408
11.380000 92.286 59.9800
11.500000 92.332 59.2195
11.720000 92.410 57.8519
11.800000 92.437 57.3690
12.060000 92.517 55.8529
12.200000 92.558 55.0763
12.410000 92.618 53.9624
12.500000 92.645 53.5007
12.650000 92.689 52.7548
12.800000 92.735 52.0247
13.150000 92.849 50.3622
13.200000 92.866 50.1251
13.400000 92.934 49.1763
13.600000 93.001 48.2163
13.800000 93.065 47.2495
14.000000 93.124 46.2791
14.300000 93.201 44.8470
14.500000 93.247 43.9222
14.750000 93.297 42.8165
15.000000 93.343 41.7745
15.250000 93.388 40.7904
15.500000 93.434 39.8545
15.750000 93.482 38.9503
16.000000 93.531 38.0604
16.250000 93.581 37.1770
16.500000 93.630 36.2950
16.750000 93.677 35.4139
17.000000 93.721 34.5374
17.250000 93.761 33.6684
17.500000 93.799 32.8092
17.750000 93.834 31.9617
18.000000 93.867 31.1262
18.250000 93.897 30.3029
18.500000 93.925 29.4916
18.750000 93.950 28.6927
19.000000 93.974 27.9062
19.250000 93.996 27.1326
19.500000 94.017 26.3722
19.750000 94.036 25.6259
20.000000 94.054 24.8939
20.299999 94.075 24.0343
20.600000 94.095 23.1920
20.900000 94.115 22.3619
21.200001 94.135 21.5376
21.400000 94.148 20.9891
21.799999 94.169 19.8995
22.000000 94.177 19.3637
22.400000 94.189 18.3245
22.700001 94.197 17.5826
23.000000 94.205 16.8689
23.299999 94.216 16.1699
23.600000 94.228 15.4680
24.000000 94.242 14.5089
24.299999 94.247 13.7817
24.700001 94.243 12.8442
25.000000 94.235 12.1994
25.400000 94.226 11.4357
25.799999 94.230 10.7426
26.200001 94.247 10.0372
26.500000 94.266 9.4590
26.900000 94.288 8.6178
27.200001 94.297 7.9590
27.600000 94.301 7.0961
28.000000 94.299 6.2820
28.500000 94.300 5.3131
29.000000 94.304 4.3310
29.500000 94.300 3.3226
30.000000 94.282 2.3530
30.400000 94.262 1.6465
30.700001 94.248 1.1613
31.100000 94.231 0.5627
31.500000 94.219 0.0010
32.000000 94.214 -0.6818
32.500000 94.220 -1.3909
33.000000 94.231 -2.1892
33.500000 94.235 -3.0995
34.000000 94.221 -4.0658
34.500000 94.186 -4.9977
35.000000 94.141 -5.8436
35.500000 94.094 -6.6101
36.000000 94.045 -7.3105
36.500000 93.997 -7.9294
37.000000 93.958 -8.4595
37.500000 93.936 -8.9493
38.200001 93.924 -9.7122
38.700001 93.913 -10.3214
39.500000 93.883 -11.1903
40.000000 93.877 -11.6184
40.599998 93.898 -12.1720
41.200001 93.932 -12.9476
41.799999 93.944 -13.9367
42.500000 93.911 -15.1359
43.099998 93.853 -16.0399
43.700001 93.784 -16.7722
44.400002 93.716 -17.4365
45.000000 93.681 -17.9868
45.500000 93.660 -18.5496
46.200001 93.613 -19.4758
46.799999 93.548 -20.2246
47.500000 93.468 -20.9589
48.200001 93.387 -21.6221
48.700001 93.323 -21.9968
49.400002 93.257 -22.2720
50.000000 93.253 -22.4775
50.799999 93.288 -23.2112
51.500000 93.280 -24.1957
52.200001 93.230 -25.0815
53.000000 93.170 -25.8882
53.799999 93.119 -26.6539
54.500000 93.073 -27.2880
55.200001 93.030 -27.8833
56.000000 92.984 -28.5630
57.000000 92.920 -29.3918
58.000000 92.852 -30.1737
59.000000 92.783 -30.8990
60.000000 92.719 -31.5988
60.799999 92.670 -32.1959
61.500000 92.623 -32.7302
62.200001 92.574 -33.2449
63.000000 92.520 -33.8148
64.000000 92.453 -34.5234
65.000000 92.388 -35.1962
66.000000 92.328 -35.8651
67.000000 92.264 -36.5465
68.000000 92.196 -37.1652
69.000000 92.134 -37.7436
70.000000 92.074 -38.3394
71.000000 92.010 -38.9473
72.000000 91.943 -39.5430
73.000000 91.874 -40.1124
74.000000 91.808 -40.6691
75.000000 91.743 -41.2267
76.199997 91.666 -41.9047
77.500000 91.579 -42.5977
78.800003 91.499 -43.2207
80.000000 91.434 -43.8289
81.199997 91.360 -44.4929
82.500000 91.267 -45.1273
83.800003 91.182 -45.6763
85.000000 91.113 -46.1780
86.199997 91.051 -46.7084
87.500000 90.981 -47.3219
88.500000 90.923 -47.7781
90.000000 90.834 -48.4451
91.199997 90.756 -48.9537
92.500000 90.672 -49.4315
93.800003 90.596 -49.8882
95.000000 90.528 -50.3320
96.199997 90.454 -50.7786
97.500000 90.369 -51.2271
98.800003 90.284 -51.6261
100.000000 90.222 -51.9849
101.500000 90.159 -52.6267
103.000000 90.078 -53.3376
104.400002 89.997 -53.9041
106.000000 89.909 -54.4318
107.500000 89.831 -54.8891
109.000000 89.750 -55.3424
110.599998 89.661 -55.8237
112.000000 89.581 -56.2343
113.800003 89.476 -56.7325
115.000000 89.404 -57.0657
117.199997 89.279 -57.6942
118.000000 89.241 -57.9376
120.599998 89.137 -58.7440
122.000000 89.088 -59.0762
124.099998 89.002 -59.4292
125.000000 88.953 -59.5448
126.500000 88.858 -59.6835
128.000000 88.768 -59.8258
131.500000 88.631 -60.3300
132.000000 88.621 -60.4115
134.000000 88.591 -60.8127
136.000000 88.550 -61.3815
138.000000 88.492 -62.0513
140.000000 88.433 -62.7257
143.000000 88.325 -63.5806
145.000000 88.225 -64.1332
147.500000 88.072 -65.0468
150.000000 87.915 -65.7485
152.500000 87.857 -65.9592
155.000000 87.812 -66.2570
157.500000 87.717 -66.5967
160.000000 87.619 -66.9356
162.500000 87.565 -67.2703
165.000000 87.532 -67.6753
167.500000 87.482 -68.1271
170.000000 87.417 -68.6362
172.500000 87.343 -69.2167
175.000000 87.262 -69.7810
177.500000 87.180 -70.2764
180.000000 87.102 -70.7172
182.500000 87.029 -71.1217
185.000000 86.964 -71.4998
187.500000 86.905 -71.8685
190.000000 86.847 -72.2709
192.500000 86.789 -72.7334
195.000000 86.736 -73.1812
197.500000 86.691 -73.5376
200.000000 86.642 -73.9160
203.000000 86.548 -74.4519
206.000000 86.451 -74.9571
209.000000 86.371 -75.4309
212.000000 86.300 -75.8536
214.000000 86.256 -76.1183
218.000000 86.178 -76.6312
220.000000 86.142 -76.8813
224.000000 86.072 -77.3911
227.000000 86.022 -77.7922
230.000000 85.974 -78.2285
233.000000 85.927 -78.6862
236.000000 85.880 -79.1293
240.000000 85.817 -79.6995
243.000000 85.766 -80.1179
247.000000 85.678 -80.6893
250.000000 85.617 -81.1044
254.000000 85.584 -81.6592
258.000000 85.551 -82.2039
262.000000 85.502 -82.7278
265.000000 85.465 -83.1107
269.000000 85.415 -83.6354
272.000000 85.379 -84.0442
276.000000 85.333 -84.5813
280.000000 85.288 -85.1015
285.000000 85.237 -85.7346
290.000000 85.193 -86.3638
295.000000 85.153 -86.9944
300.000000 85.111 -87.6183
304.000000 85.079 -88.1322
307.000000 85.056 -88.5179
311.000000 85.028 -89.0234
315.000000 85.002 -89.5248
320.000000 84.972 -90.1519
325.000000 84.944 -90.7777
330.000000 84.919 -91.3883
335.000000 84.897 -91.9890
340.000000 84.876 -92.5659
345.000000 84.858 -93.0485
350.000000 84.844 -93.5067
355.000000 84.843 -94.1205
360.000000 84.855 -94.7459
365.000000 84.876 -95.3734
370.000000 84.899 -96.0700
375.000000 84.916 -96.8250
382.000000 84.929 -97.9205
387.000000 84.934 -98.6953
395.000000 84.938 -99.8966
400.000000 84.941 -100.6403
406.000000 84.948 -101.5229
412.000000 84.957 -102.4007
418.000000 84.965 -103.2776
425.000000 84.978 -104.3112
431.000000 84.992 -105.1951
437.000000 85.007 -106.0516
444.000000 85.024 -106.9822
450.000000 85.040 -107.7988
455.000000 85.056 -108.6205
462.000000 85.081 -109.7905
468.000000 85.101 -110.7311
475.000000 85.123 -111.8173
482.000000 85.147 -112.9019
487.000000 85.165 -113.6729
494.000000 85.188 -114.7485
500.000000 85.208 -115.6746
508.000000 85.235 -116.9266
515.000000 85.258 -118.0281
522.000000 85.280 -119.1334
530.000000 85.305 -120.3987
538.000000 85.330 -121.6854
545.000000 85.348 -122.8455
552.000000 85.366 -123.9644
560.000000 85.389 -125.1537
570.000000 85.415 -126.6866
580.000000 85.437 -128.2515
590.000000 85.455 -129.8017
600.000000 85.470 -131.3359
608.000000 85.481 -132.5461
615.000000 85.490 -133.5938
622.000000 85.498 -134.6334
630.000000 85.506 -135.8104
640.000000 85.514 -137.2286
650.000000 85.520 -138.6066
660.000000 85.520 -140.0639
670.000000 85.518 -141.4786
680.000000 85.515 -142.8274
690.000000 85.512 -144.1345
700.000000 85.508 -145.4107
710.000000 85.504 -146.6588
720.000000 85.497 -147.8773
730.000000 85.491 -149.0682
740.000000 85.487 -150.2444
750.000000 85.484 -151.3810
762.000000 85.474 -152.6221
775.000000 85.463 -153.9286
788.000000 85.458 -155.2061
800.000000 85.457 -156.3526
812.000000 85.458 -157.4602
825.000000 85.461 -158.6013
838.000000 85.465 -159.6970
850.000000 85.472 -160.6811
862.000000 85.490 -161.6207
875.000000 85.511 -162.6068
885.000000 85.528 -163.3496
900.000000 85.559 -164.4325
912.000000 85.588 -165.2751
925.000000 85.622 -166.1600
938.000000 85.659 -167.0128
950.000000 85.695 -167.7938
962.000000 85.737 -168.6043
975.000000 85.787 -169.4804
988.000000 85.838 -170.3323
1000.000000 85.885 -171.1044
1015.000000 85.947 -172.0656
1030.000000 86.010 -173.0156
1044.000000 86.068 -173.8921
1060.000000 86.139 -174.9122
1075.000000 86.208 -175.8707
1090.000000 86.276 -176.8092
1106.000000 86.346 -177.7934
1120.000000 86.406 -178.6470
1138.000000 86.482 -179.7324
1150.000000 86.532 179.5544
1172.000000 86.621 178.2578
1180.000000 86.653 177.7955
1206.000000 86.755 176.3268
1220.000000 86.808 175.5657
1241.000000 86.884 174.4650
1250.000000 86.916 174.0036
1265.000000 86.970 173.2415
1280.000000 87.024 172.5042
1315.000000 87.148 170.8906
1320.000000 87.166 170.6712
1340.000000 87.238 169.8230
1360.000000 87.309 169.0074
1380.000000 87.381 168.2236
1400.000000 87.455 167.4817
1430.000000 87.570 166.4459
1450.000000 87.649 165.7932
1475.000000 87.753 165.0121
1500.000000 87.863 164.2828
1525.000000 87.979 163.5823
1550.000000 88.100 162.9136
1575.000000 88.226 162.2830
1600.000000 88.360 161.6639
1625.000000 88.500 161.0600
1650.000000 88.648 160.4626
1675.000000 88.804 159.8444
1700.000000 88.966 159.2134
1725.000000 89.136 158.5733
1750.000000 89.312 157.9095
1775.000000 89.495 157.2027
1800.000000 89.684 156.4477
1825.000000 89.878 155.6367
1850.000000 90.078 154.7634
1875.000000 90.283 153.8187
1900.000000 90.490 152.7940
1925.000000 90.699 151.6755
1950.000000 90.907 150.4531
1975.000000 91.111 149.1205
2000.000000 91.310 147.6746
2030.000000 91.539 145.7876
2060.000000 91.753 143.7366
2090.000000 91.947 141.5208
2120.000000 92.114 139.1490
2140.000000 92.208 137.4917
2180.000000 92.351 134.0256
2200.000000 92.396 132.2381
2240.000000 92.428 128.6085
2270.000000 92.401 125.8984
2300.000000 92.330 123.2482
2330.000000 92.215 120.6927
2360.000000 92.058 118.2788
2400.000000 91.791 115.3670
2430.000000 91.552 113.4555
2470.000000 91.195 111.3290
2500.000000 90.908 110.0804
2540.000000 90.520 108.8862
2580.000000 90.147 108.1792
2620.000000 89.805 107.8262
2650.000000 89.574 107.7095
2690.000000 89.290 107.6654
2720.000000 89.092 107.6744
2760.000000 88.841 107.7349
2800.000000 88.598 107.8640
2850.000000 88.301 108.1437
2900.000000 88.013 108.5925
2950.000000 87.739 109.2488
3000.000000 87.486 110.1090
3040.000000 87.304 110.9196
3070.000000 87.180 111.5787
3110.000000 87.031 112.5005
3150.000000 86.897 113.4613
3200.000000 86.745 114.7335
3250.000000 86.610 116.1044
3300.000000 86.496 117.5907
3350.000000 86.411 119.1899
3400.000000 86.360 120.8871
3450.000000 86.349 122.6464
3500.000000 86.383 124.4147
3550.000000 86.463 126.1349
3600.000000 86.593 127.7367
3650.000000 86.771 129.1333
3700.000000 86.992 130.2330
3750.000000 87.240 130.9495
3820.000000 87.600 131.2148
3870.000000 87.839 130.8702
3950.000000 88.138 129.6004
4000.000000 88.256 128.5587
4060.000000 88.331 127.2847
4120.000000 88.352 126.1456
4180.000000 88.343 125.2087
4250.000000 88.323 124.3528
4310.000000 88.318 123.7430
4370.000000 88.335 123.1491
4440.000000 88.387 122.2928
4500.000000 88.454 121.2428
4550.000000 88.511 120.0285
4620.000000 88.555 117.6818
4680.000000 88.513 115.0554
4750.000000 88.300 111.4703
4820.000000 87.846 107.9609
4870.000000 87.364 106.0938
4940.000000 86.527 105.2330
5000.000000 85.789 106.4858
5080.000000 85.041 110.4329
5150.000000 84.750 114.6180
5220.000000 84.748 118.2172
5300.000000 84.925 120.9025
5380.000000 85.119 122.1295
5450.000000 85.224 122.4492
5520.000000 85.256 122.5062
5600.000000 85.230 122.5573
5700.000000 85.129 122.6382
5800.000000 84.905 122.8740
5900.000000 84.553 124.4924
6000.000000 84.411 128.0190
6080.000000 84.545 130.3019
6150.000000 84.678 131.5111
6220.000000 84.780 132.4803
6300.000000 84.890 133.5934
6400.000000 85.059 134.9771
6500.000000 85.275 136.1894
6600.000000 85.534 137.0787
6700.000000 85.821 137.5145
6800.000000 86.116 137.3812
6900.000000 86.380 136.6082
7000.000000 86.574 135.2737
7100.000000 86.669 133.5547
7200.000000 86.642 131.6798
7300.000000 86.485 129.9825
7400.000000 86.214 128.8220
7500.000000 85.873 128.4218
7620.000000 85.438 128.9497
7750.000000 84.999 130.4957
7880.000000 84.613 132.7448
8000.000000 84.304 135.2700
8120.000000 84.032 138.1598
8250.000000 83.777 141.7137
8380.000000 83.576 145.7990
8500.000000 83.471 150.0358
8620.000000 83.479 154.4993
8750.000000 83.619 159.2107
8850.000000 83.792 162.5941
9000.000000 84.145 167.3408
9120.000000 84.537 170.5945
9250.000000 84.995 172.9831
9380.000000 85.378 174.4040
9500.000000 85.639 175.3354
9620.000000 85.829 176.2431
9750.000000 85.990 177.4551
9880.000000 86.166 178.9398
10000.000000 86.387 -179.6601
10150.000000 86.770 -178.3809
10300.000000 87.242 -178.4366
10440.000000 87.647 179.5643
10600.000000 87.836 174.7875
10750.000000 87.543 168.9979
10900.000000 86.726 164.0229
11060.000000 85.397 161.6680
11200.000000 84.057 162.6488
11380.000000 82.385 167.3388
11500.000000 81.389 171.9713
11720.000000 79.859 -177.4081
11800.000000 79.400 -172.9800
12060.000000 78.330 -156.9985
12200.000000 78.067 -147.7794
12410.000000 78.130 -134.1481
12500.000000 78.309 -128.6572
12650.000000 78.764 -120.1789
12800.000000 79.391 -112.5656
13150.000000 81.598 -98.9128
13200.000000 81.995 -97.6971
13400.000000 83.646 -95.7730
13600.000000 85.054 -99.3907
13800.000000 85.782 -107.5721
14000.000000 85.659 -116.5245
14300.000000 84.387 -123.9037
14500.000000 83.393 -124.1138
14750.000000 82.461 -121.2226
15000.000000 82.046 -116.9744
15250.000000 82.200 -113.0065
15500.000000 82.942 -110.8729
15750.000000 84.217 -112.7399
16000.000000 85.655 -121.5892
16250.000000 86.495 -138.9349
16500.000000 86.164 -160.3919
16750.000000 84.818 -179.4379
17000.000000 83.040 165.2388
17250.000000 81.218 151.3800
17500.000000 79.349 137.4059
17750.000000 77.292 123.7229
18000.000000 75.073 111.2109
18250.000000 72.907 99.4570
18500.000000 71.014 86.7749
18750.000000 69.463 70.6531
19000.000000 68.026 49.0989
19250.000000 66.352 22.0796
19500.000000 64.282 -9.3032
19750.000000 61.900 -41.3006
