* Measurement data measured by REW V5.20.9
* Source: Headset (USB-C to 3.5mm Headphone Jack Adapter), MICROPHONE (Master Volume), L, volume: 0.800. Timing signal peak level -24.9 dBFS, measurement signal peak level -22.3 dBFS
* Format: 256k Log Swept Sine, 1 sweep at -12.0 dBFS using an acoustic timing reference
* Dated: 27/08/2023 5:27:17 PM
* REW Settings:
*  C-weighting compensation: Off
*  Target level: 75.0 dB
* Note: ; Delay -0.0196 ms (-6.7 mm, -0.26 in) using estimated IR delay relative to Acoustic reference on SPEAKER L with no timing offset
* Measurement: Variations L
* Smoothing: 1/24 octave
* Frequency Step: 1/48 octave
* Start Frequency: 1.000 Hz
*
* Freq(Hz) SPL(dB) Phase(degrees)
1.000000 66.323 -77.7056
1.015000 66.258 -79.6302
1.030000 66.200 -81.5421
1.044000 66.154 -83.3112
1.060000 66.111 -85.3101
1.075000 66.080 -87.1570
1.090000 66.059 -88.9732
1.106000 66.049 -90.8777
1.120000 66.048 -92.5484
1.138000 66.056 -94.7100
1.150000 66.067 -96.1581
1.172000 66.098 -98.8242
1.180000 66.113 -99.7965
1.206000 66.172 -102.9623
1.220000 66.211 -104.6685
1.241000 66.279 -107.2256
1.250000 66.310 -108.3198
1.265000 66.367 -110.1396
1.280000 66.429 -111.9533
1.315000 66.587 -116.1514
1.320000 66.612 -116.7463
1.340000 66.713 -119.1113
1.360000 66.819 -121.4497
1.380000 66.930 -123.7575
1.400000 67.045 -126.0305
1.430000 67.223 -129.3657
1.450000 67.345 -131.5336
1.475000 67.500 -134.1792
1.500000 67.669 -136.7964
1.525000 67.852 -139.3912
1.550000 68.048 -141.9579
1.575000 68.254 -144.4907
1.600000 68.469 -146.9840
1.625000 68.692 -149.4318
1.650000 68.920 -151.8286
1.675000 69.152 -154.1686
1.700000 69.386 -156.4460
1.725000 69.621 -158.6550
1.750000 69.854 -160.7900
1.775000 70.083 -162.8452
1.800000 70.308 -164.8148
1.825000 70.526 -166.6932
1.850000 70.739 -168.4709
1.875000 70.953 -170.1415
1.900000 71.168 -171.7134
1.925000 71.385 -173.1957
1.950000 71.601 -174.5975
1.975000 71.817 -175.9278
2.000000 72.032 -177.1955
2.030000 72.289 -178.6471
2.060000 72.543 179.9626
2.090000 72.793 178.6180
2.120000 73.039 177.3036
2.140000 73.200 176.4362
2.180000 73.514 174.7024
2.200000 73.667 173.8269
2.240000 73.965 172.1198
2.270000 74.183 170.8958
2.300000 74.398 169.7158
2.330000 74.608 168.5760
2.360000 74.814 167.4727
2.400000 75.083 166.0517
2.430000 75.281 165.0187
2.470000 75.539 163.6777
2.500000 75.729 162.6945
2.540000 75.978 161.4061
2.580000 76.222 160.1392
2.620000 76.460 158.9173
2.650000 76.634 158.0323
2.690000 76.860 156.8904
2.720000 77.026 156.0601
2.760000 77.242 154.9840
2.800000 77.454 153.9390
2.850000 77.713 152.6694
2.900000 77.965 151.4319
2.950000 78.212 150.2212
3.000000 78.451 149.0611
3.040000 78.637 148.1689
3.070000 78.774 147.5178
3.110000 78.952 146.6697
3.150000 79.127 145.8404
3.200000 79.340 144.8230
3.250000 79.549 143.8186
3.300000 79.754 142.8181
3.350000 79.954 141.8254
3.400000 80.149 140.8487
3.450000 80.338 139.8891
3.500000 80.522 138.9481
3.550000 80.703 138.0271
3.600000 80.880 137.1273
3.650000 81.055 136.2502
3.700000 81.227 135.4002
3.750000 81.394 134.5822
3.820000 81.623 133.4785
3.870000 81.783 132.7106
3.950000 82.032 131.4989
4.000000 82.186 130.7417
4.060000 82.367 129.8253
4.120000 82.544 128.9121
4.180000 82.718 128.0052
4.250000 82.916 126.9561
4.310000 83.083 126.0652
4.370000 83.246 125.1828
4.440000 83.433 124.1669
4.500000 83.590 123.3107
4.550000 83.719 122.6045
4.620000 83.895 121.6217
4.680000 84.042 120.7800
4.750000 84.209 119.7923
4.820000 84.372 118.7945
4.870000 84.485 118.0780
4.940000 84.639 117.0734
5.000000 84.768 116.2139
5.080000 84.933 115.0756
5.150000 85.072 114.0909
5.220000 85.206 113.1100
5.300000 85.352 111.9950
5.380000 85.491 110.8929
5.450000 85.608 109.9444
5.520000 85.720 109.0141
5.600000 85.842 107.9639
5.700000 85.984 106.6766
5.800000 86.118 105.4313
5.900000 86.247 104.2410
6.000000 86.367 103.0988
6.080000 86.458 102.2197
6.150000 86.536 101.4774
6.220000 86.614 100.7618
6.300000 86.701 99.9804
6.400000 86.807 99.0558
6.500000 86.912 98.1767
6.600000 87.019 97.3295
6.700000 87.128 96.5225
6.800000 87.238 95.7540
6.900000 87.350 95.0052
7.000000 87.465 94.2606
7.100000 87.583 93.5340
7.200000 87.703 92.8170
7.300000 87.823 92.0948
7.400000 87.943 91.3587
7.500000 88.064 90.6166
7.620000 88.208 89.7184
7.750000 88.360 88.7344
7.880000 88.508 87.7348
8.000000 88.640 86.8115
8.120000 88.767 85.8987
8.250000 88.899 84.9138
8.380000 89.026 83.9460
8.500000 89.139 83.0798
8.620000 89.249 82.2352
8.750000 89.365 81.3424
8.850000 89.453 80.6719
9.000000 89.584 79.6968
9.120000 89.688 78.9272
9.250000 89.800 78.0947
9.380000 89.912 77.2694
9.500000 90.013 76.5002
9.620000 90.112 75.7158
9.750000 90.217 74.8548
9.880000 90.316 73.9839
10.000000 90.402 73.1660
10.150000 90.501 72.1321
10.300000 90.589 71.1149
10.440000 90.660 70.1732
10.600000 90.730 69.1362
10.750000 90.786 68.2253
10.900000 90.834 67.3682
11.060000 90.881 66.5376
11.200000 90.919 65.8829
11.380000 90.972 65.1143
11.500000 91.010 64.6536
11.720000 91.090 63.8625
11.800000 91.124 63.5777
12.060000 91.247 62.6559
12.200000 91.320 62.1090
12.410000 91.435 61.2245
12.500000 91.484 60.8100
12.650000 91.564 60.0708
12.800000 91.640 59.2888
13.150000 91.788 57.3280
13.200000 91.805 57.0454
13.400000 91.867 55.9061
13.600000 91.919 54.7988
13.800000 91.962 53.7436
14.000000 92.004 52.7356
14.300000 92.071 51.2961
14.500000 92.123 50.3430
14.750000 92.188 49.1057
15.000000 92.252 47.7983
15.250000 92.299 46.4178
15.500000 92.321 45.0523
15.750000 92.317 43.7744
16.000000 92.287 42.7198
16.250000 92.253 41.9800
16.500000 92.234 41.5609
16.750000 92.255 41.4408
17.000000 92.336 41.4148
17.250000 92.474 41.3383
17.500000 92.664 41.0222
17.750000 92.870 40.3310
18.000000 93.069 39.2805
18.250000 93.236 37.8945
18.500000 93.353 36.3467
18.750000 93.419 34.7657
19.000000 93.435 33.2723
19.250000 93.418 31.9965
19.500000 93.381 30.9494
19.750000 93.338 30.1367
20.000000 93.304 29.4963
20.299999 93.277 28.8575
20.600000 93.266 28.2768
20.900000 93.262 27.6990
21.200001 93.261 27.1200
21.400000 93.259 26.7476
21.799999 93.262 26.0398
22.000000 93.268 25.6945
22.400000 93.293 24.9689
22.700001 93.319 24.3455
23.000000 93.342 23.6351
23.299999 93.354 22.8741
23.600000 93.354 22.1212
24.000000 93.341 21.2212
24.299999 93.334 20.6516
24.700001 93.342 19.9753
25.000000 93.360 19.4484
25.400000 93.385 18.6492
25.799999 93.386 17.8174
26.200001 93.359 17.1745
26.500000 93.342 16.9092
26.900000 93.357 16.7579
27.200001 93.406 16.5800
27.600000 93.494 15.9443
28.000000 93.529 14.7979
28.500000 93.412 13.3866
29.000000 93.206 13.1812
29.500000 93.165 13.9946
30.000000 93.368 13.7783
30.400000 93.502 11.8065
30.700001 93.454 9.5270
31.100000 93.111 6.8412
31.500000 92.528 6.2394
32.000000 91.937 9.3438
32.500000 92.103 13.6995
33.000000 92.784 14.6009
33.500000 93.287 11.2609
34.000000 93.318 6.7314
34.500000 93.049 4.0403
35.000000 92.833 3.5956
35.500000 92.868 3.6058
36.000000 93.023 2.9072
36.500000 93.127 1.6559
37.000000 93.170 0.6418
37.500000 93.223 -0.0253
38.200001 93.319 -1.0597
38.700001 93.336 -1.8971
39.500000 93.288 -2.6693
40.000000 93.273 -2.9014
40.599998 93.270 -3.3214
41.200001 93.241 -3.9342
41.799999 93.183 -4.5510
42.500000 93.109 -5.2018
43.099998 93.058 -5.7740
43.700001 93.020 -6.4293
44.400002 92.983 -7.3185
45.000000 92.949 -8.0998
45.500000 92.924 -8.7022
46.200001 92.903 -9.5154
46.799999 92.885 -10.2274
47.500000 92.851 -10.9440
48.200001 92.826 -11.4628
48.700001 92.824 -11.8378
49.400002 92.815 -12.5468
50.000000 92.771 -13.2190
50.799999 92.670 -13.8378
51.500000 92.597 -14.1055
52.200001 92.555 -14.4017
53.000000 92.513 -14.9104
53.799999 92.463 -15.4532
54.500000 92.427 -15.9351
55.200001 92.395 -16.4919
56.000000 92.351 -17.2039
57.000000 92.282 -18.1140
58.000000 92.201 -18.9745
59.000000 92.129 -19.7118
60.000000 92.084 -20.5524
60.799999 92.034 -21.3368
61.500000 91.976 -21.9418
62.200001 91.918 -22.4321
63.000000 91.859 -22.9135
64.000000 91.789 -23.3997
65.000000 91.735 -23.7708
66.000000 91.710 -24.1761
67.000000 91.692 -24.9652
68.000000 91.595 -25.9358
69.000000 91.460 -26.4257
70.000000 91.379 -26.7221
71.000000 91.319 -27.2338
72.000000 91.241 -27.8354
73.000000 91.147 -28.3499
74.000000 91.063 -28.8007
75.000000 90.980 -29.2906
76.199997 90.889 -29.7910
77.500000 90.830 -30.5111
78.800003 90.737 -31.4120
80.000000 90.628 -31.9830
81.199997 90.525 -32.3425
82.500000 90.432 -32.6234
83.800003 90.341 -33.1190
85.000000 90.222 -33.5824
86.199997 90.118 -33.9205
87.500000 90.037 -34.3735
88.500000 89.982 -34.7483
90.000000 89.915 -35.2647
91.199997 89.856 -35.7087
92.500000 89.748 -36.1434
93.800003 89.611 -36.3200
95.000000 89.502 -36.4671
96.199997 89.404 -36.8867
97.500000 89.279 -37.6057
98.800003 89.143 -38.3293
100.000000 89.016 -38.8547
101.500000 88.897 -39.0510
103.000000 88.843 -39.1978
104.400002 88.784 -39.3622
106.000000 88.711 -39.4794
107.500000 88.625 -39.8441
109.000000 88.479 -40.2297
110.599998 88.313 -40.3637
112.000000 88.202 -40.4441
113.800003 88.078 -40.8018
115.000000 87.986 -41.1309
117.199997 87.783 -41.6774
118.000000 87.701 -41.7719
120.599998 87.483 -41.7610
122.000000 87.397 -41.8176
124.099998 87.274 -42.1154
125.000000 87.214 -42.3014
126.500000 87.097 -42.5658
128.000000 86.972 -42.7225
131.500000 86.659 -42.9075
132.000000 86.613 -42.9184
134.000000 86.438 -42.8698
136.000000 86.310 -42.6414
138.000000 86.221 -42.4794
140.000000 86.107 -42.4280
143.000000 85.882 -42.4369
145.000000 85.740 -42.4574
147.500000 85.600 -42.3306
150.000000 85.473 -42.1785
152.500000 85.277 -42.1024
155.000000 85.063 -41.8511
157.500000 84.882 -41.5870
160.000000 84.711 -41.3574
162.500000 84.551 -41.1183
165.000000 84.423 -40.7242
167.500000 84.313 -40.2481
170.000000 84.149 -39.8912
172.500000 83.951 -39.5546
175.000000 83.781 -39.2256
177.500000 83.641 -38.8070
180.000000 83.509 -38.3136
182.500000 83.374 -37.8282
185.000000 83.236 -37.3402
187.500000 83.096 -36.9023
190.000000 82.969 -36.5245
192.500000 82.868 -36.0417
195.000000 82.758 -35.3376
197.500000 82.593 -34.5386
200.000000 82.404 -33.8207
203.000000 82.271 -33.1067
206.000000 82.216 -32.5052
209.000000 82.128 -31.7668
212.000000 82.025 -30.8983
214.000000 81.963 -30.3129
218.000000 81.823 -29.1885
220.000000 81.752 -28.6114
224.000000 81.642 -27.4022
227.000000 81.579 -26.4414
230.000000 81.523 -25.4050
233.000000 81.469 -24.2327
236.000000 81.430 -23.2347
240.000000 81.374 -22.4632
243.000000 81.327 -21.7372
247.000000 81.259 -20.6689
250.000000 81.215 -20.0298
254.000000 81.201 -19.1641
258.000000 81.182 -18.2149
262.000000 81.146 -17.3738
265.000000 81.115 -16.8154
269.000000 81.072 -15.9282
272.000000 81.064 -15.1558
276.000000 81.074 -14.2345
280.000000 81.069 -13.4997
285.000000 81.032 -12.5740
290.000000 81.009 -11.4620
295.000000 81.003 -10.5045
300.000000 80.993 -9.6042
304.000000 80.992 -8.8855
307.000000 80.993 -8.3525
311.000000 80.999 -7.6483
315.000000 81.010 -6.9465
320.000000 81.026 -6.1138
325.000000 81.037 -5.3762
330.000000 81.055 -4.6399
335.000000 81.070 -3.8963
340.000000 81.091 -3.1899
345.000000 81.110 -2.5424
350.000000 81.127 -1.9308
355.000000 81.152 -1.2756
360.000000 81.180 -0.6705
365.000000 81.209 -0.0909
370.000000 81.239 0.5200
375.000000 81.269 1.1105
382.000000 81.302 1.8998
387.000000 81.330 2.4019
395.000000 81.382 3.1521
400.000000 81.404 3.6808
406.000000 81.427 4.2710
412.000000 81.463 4.7769
418.000000 81.504 5.2604
425.000000 81.547 5.7863
431.000000 81.585 6.2303
437.000000 81.618 6.6875
444.000000 81.646 7.2817
450.000000 81.661 7.8096
455.000000 81.680 8.1434
462.000000 81.725 8.5676
468.000000 81.758 8.9558
475.000000 81.787 9.3442
482.000000 81.824 9.7330
487.000000 81.854 10.0590
494.000000 81.888 10.5434
500.000000 81.901 10.9508
508.000000 81.920 11.4197
515.000000 81.952 11.8073
522.000000 81.988 12.2180
530.000000 82.022 12.6995
538.000000 82.053 13.1539
545.000000 82.087 13.5477
552.000000 82.116 13.9270
560.000000 82.137 14.3221
570.000000 82.168 14.8537
580.000000 82.206 15.3481
590.000000 82.247 15.8547
600.000000 82.282 16.3966
608.000000 82.307 16.8091
615.000000 82.324 17.1733
622.000000 82.345 17.5391
630.000000 82.373 17.9655
640.000000 82.410 18.5137
650.000000 82.451 18.9789
660.000000 82.481 19.4171
670.000000 82.512 19.9476
680.000000 82.550 20.5037
690.000000 82.587 21.0272
700.000000 82.622 21.4873
710.000000 82.649 21.9908
720.000000 82.680 22.6213
730.000000 82.728 23.1560
740.000000 82.776 23.4850
750.000000 82.819 23.7999
762.000000 82.866 24.5671
775.000000 82.899 25.4257
788.000000 82.974 26.1469
800.000000 83.034 27.0482
812.000000 83.076 27.6206
825.000000 83.174 28.0600
838.000000 83.273 28.7202
850.000000 83.353 29.3815
862.000000 83.439 30.0018
875.000000 83.530 30.6353
885.000000 83.595 31.0569
900.000000 83.700 31.6957
912.000000 83.785 32.2355
925.000000 83.886 32.7430
938.000000 83.996 33.2157
950.000000 84.101 33.6264
962.000000 84.209 34.0358
975.000000 84.325 34.4697
988.000000 84.442 34.8388
1000.000000 84.551 35.1349
1015.000000 84.685 35.4968
1030.000000 84.816 35.7897
1044.000000 84.936 35.9940
1060.000000 85.076 36.2067
1075.000000 85.205 36.3603
1090.000000 85.333 36.4779
1106.000000 85.464 36.5475
1120.000000 85.574 36.5776
1138.000000 85.710 36.5917
1150.000000 85.796 36.5761
1172.000000 85.947 36.5206
1180.000000 86.000 36.4922
1206.000000 86.163 36.3757
1220.000000 86.245 36.2986
1241.000000 86.364 36.1886
1250.000000 86.413 36.1361
1265.000000 86.491 36.0423
1280.000000 86.565 35.9518
1315.000000 86.728 35.7473
1320.000000 86.750 35.7209
1340.000000 86.834 35.6124
1360.000000 86.913 35.5046
1380.000000 86.989 35.4189
1400.000000 87.064 35.3477
1430.000000 87.171 35.2444
1450.000000 87.240 35.1931
1475.000000 87.327 35.1624
1500.000000 87.409 35.1577
1525.000000 87.488 35.1705
1550.000000 87.568 35.1941
1575.000000 87.648 35.2343
1600.000000 87.729 35.2904
1625.000000 87.811 35.3369
1650.000000 87.891 35.4067
1675.000000 87.975 35.4915
1700.000000 88.061 35.5880
1725.000000 88.149 35.6877
1750.000000 88.236 35.7744
1775.000000 88.326 35.8571
1800.000000 88.419 35.9410
1825.000000 88.513 36.0254
1850.000000 88.608 36.1051
1875.000000 88.705 36.1766
1900.000000 88.805 36.2486
1925.000000 88.907 36.3145
1950.000000 89.012 36.3658
1975.000000 89.120 36.4048
2000.000000 89.230 36.4317
2030.000000 89.362 36.4504
2060.000000 89.497 36.4441
2090.000000 89.635 36.4085
2120.000000 89.777 36.3458
2140.000000 89.872 36.2915
2180.000000 90.064 36.1380
2200.000000 90.161 36.0315
2240.000000 90.358 35.7747
2270.000000 90.508 35.5457
2300.000000 90.659 35.2815
2330.000000 90.811 34.9777
2360.000000 90.963 34.6250
2400.000000 91.166 34.0865
2430.000000 91.317 33.6331
2470.000000 91.517 32.9601
2500.000000 91.668 32.3984
2540.000000 91.866 31.5846
2580.000000 92.057 30.6927
2620.000000 92.242 29.7134
2650.000000 92.377 28.9164
2690.000000 92.551 27.7769
2720.000000 92.675 26.8783
2760.000000 92.829 25.6182
2800.000000 92.972 24.2844
2850.000000 93.134 22.5275
2900.000000 93.276 20.6978
2950.000000 93.393 18.8099
3000.000000 93.489 16.8815
3040.000000 93.551 15.3210
3070.000000 93.589 14.1427
3110.000000 93.631 12.5612
3150.000000 93.660 10.9577
3200.000000 93.678 8.9038
3250.000000 93.669 6.8071
3300.000000 93.628 4.7119
3350.000000 93.554 2.6574
3400.000000 93.452 0.6940
3450.000000 93.325 -1.1392
3500.000000 93.179 -2.8354
3550.000000 93.019 -4.3843
3600.000000 92.851 -5.7871
3650.000000 92.679 -7.0605
3700.000000 92.504 -8.2309
3750.000000 92.326 -9.3289
3820.000000 92.073 -10.7527
3870.000000 91.886 -11.6774
3950.000000 91.570 -12.9529
4000.000000 91.363 -13.5942
4060.000000 91.117 -14.1763
4120.000000 90.883 -14.5713
4180.000000 90.666 -14.8279
4250.000000 90.433 -15.0236
4310.000000 90.250 -15.1426
4370.000000 90.080 -15.2468
4440.000000 89.893 -15.3778
4500.000000 89.739 -15.4890
4550.000000 89.614 -15.5788
4620.000000 89.442 -15.7126
4680.000000 89.296 -15.8235
4750.000000 89.125 -15.9348
4820.000000 88.952 -16.0377
4870.000000 88.826 -16.1053
4940.000000 88.649 -16.1786
5000.000000 88.496 -16.2165
5080.000000 88.289 -16.2165
5150.000000 88.105 -16.1602
5220.000000 87.920 -16.0553
5300.000000 87.707 -15.8773
5380.000000 87.492 -15.6384
5450.000000 87.301 -15.3629
5520.000000 87.110 -15.0241
5600.000000 86.890 -14.5622
5700.000000 86.615 -13.8521
5800.000000 86.343 -12.9583
5900.000000 86.082 -11.8813
6000.000000 85.835 -10.6483
6080.000000 85.649 -9.5449
6150.000000 85.497 -8.5013
6220.000000 85.356 -7.4031
6300.000000 85.208 -6.0792
6400.000000 85.047 -4.3202
6500.000000 84.911 -2.4532
6600.000000 84.803 -0.4800
6700.000000 84.726 1.5768
6800.000000 84.683 3.6627
6900.000000 84.674 5.7804
7000.000000 84.703 7.9219
7100.000000 84.774 10.0404
7200.000000 84.883 12.0952
7300.000000 85.025 14.0671
7400.000000 85.201 15.9791
7500.000000 85.422 17.8748
7620.000000 85.771 20.0393
7750.000000 86.251 21.9327
7880.000000 86.815 23.2544
8000.000000 87.420 23.8796
8120.000000 88.102 23.6770
8250.000000 88.898 22.2114
8380.000000 89.696 19.1144
8500.000000 90.350 14.5721
8620.000000 90.823 8.4785
8750.000000 91.033 0.7017
8850.000000 90.950 -5.4822
9000.000000 90.461 -13.9878
9120.000000 89.829 -19.5170
9250.000000 88.992 -23.9347
9380.000000 88.087 -26.6929
9500.000000 87.261 -27.9384
9620.000000 86.492 -28.2155
9750.000000 85.749 -27.7278
9880.000000 85.108 -26.6541
10000.000000 84.607 -25.3215
10150.000000 84.097 -23.4324
10300.000000 83.711 -21.4811
10440.000000 83.449 -19.7441
10600.000000 83.251 -18.0405
10750.000000 83.143 -16.8643
10900.000000 83.092 -16.1846
11060.000000 83.067 -16.0822
11200.000000 83.043 -16.5334
11380.000000 82.971 -17.7339
11500.000000 82.881 -18.8019
11720.000000 82.628 -20.9872
11800.000000 82.514 -21.7980
12060.000000 82.081 -24.5385
12200.000000 81.805 -26.1145
12410.000000 81.309 -28.4849
12500.000000 81.061 -29.4370
12650.000000 80.609 -30.8453
12800.000000 80.122 -31.9510
13150.000000 78.940 -33.0875
13200.000000 78.772 -33.0771
13400.000000 78.115 -32.6577
13600.000000 77.505 -31.7806
13800.000000 76.983 -30.4071
14000.000000 76.583 -28.7991
14300.000000 76.171 -26.6161
14500.000000 76.002 -25.2291
14750.000000 75.920 -23.5605
15000.000000 76.036 -22.2476
15250.000000 76.402 -21.6799
15500.000000 77.008 -22.4700
15750.000000 77.811 -25.3362
16000.000000 78.715 -31.0651
16250.000000 79.550 -40.1844
16500.000000 80.096 -52.6070
16750.000000 80.178 -67.0801
17000.000000 79.771 -81.5693
17250.000000 79.027 -94.6346
17500.000000 78.158 -106.0601
17750.000000 77.349 -116.3791
18000.000000 76.727 -126.4126
18250.000000 76.340 -137.1909
18500.000000 76.173 -149.7493
18750.000000 76.156 -165.0768
19000.000000 76.155 175.9993
19250.000000 75.999 152.7977
19500.000000 75.474 125.4194
19750.000000 74.460 97.7314
