* Measurement data measured by REW V5.20.9
* Source: Headset (USB-C to 3.5mm Headphone Jack Adapter), MICROPHONE (Master Volume), L, volume: 0.260. Timing signal peak level -16.1 dBFS, measurement signal peak level -16.8 dBFS
* Format: 256k Log Swept Sine, 1 sweep at -12.0 dBFS using an acoustic timing reference
* Dated: 04/10/2024 12:11:28 PM
* REW Settings:
*  C-weighting compensation: Off
*  Target level: 75.0 dB
* Note: ; Delay -0.2637 ms (-90 mm, -3.56 in) using estimated IR delay relative to Acoustic reference on HEADPHONE L with no timing offset
* Measurement: Xeno v0.11 L
* Smoothing: 1/24 octave
* Frequency Step: 1/48 octave
* Start Frequency: 1.000 Hz
*
* Freq(Hz) SPL(dB) Phase(degrees)
1.000000 38.196 114.7195
1.015000 38.218 113.2586
1.030000 38.245 111.8211
1.044000 38.274 110.5043
1.060000 38.314 109.0337
1.075000 38.358 107.6926
1.090000 38.407 106.3926
1.106000 38.467 105.0517
1.120000 38.526 103.8954
1.138000 38.608 102.4251
1.150000 38.667 101.4550
1.172000 38.785 99.6974
1.180000 38.830 99.0649
1.206000 38.986 97.0334
1.220000 39.076 95.9547
1.241000 39.217 94.3562
1.250000 39.279 93.6783
1.265000 39.386 92.5579
1.280000 39.496 91.4492
1.315000 39.764 88.9069
1.320000 39.803 88.5488
1.340000 39.962 87.1288
1.360000 40.125 85.7286
1.380000 40.290 84.3478
1.400000 40.457 82.9863
1.430000 40.709 80.9795
1.450000 40.878 79.6649
1.475000 41.088 78.0467
1.500000 41.306 76.4520
1.525000 41.533 74.8815
1.550000 41.766 73.3369
1.575000 42.006 71.8204
1.600000 42.251 70.3337
1.625000 42.500 68.8789
1.650000 42.753 67.4578
1.675000 43.007 66.0725
1.700000 43.263 64.7248
1.725000 43.519 63.4166
1.750000 43.775 62.1500
1.775000 44.029 60.9268
1.800000 44.280 59.7489
1.825000 44.527 58.6183
1.850000 44.772 57.5414
1.875000 45.018 56.5268
1.900000 45.264 55.5696
1.925000 45.512 54.6643
1.950000 45.760 53.8055
1.975000 46.007 52.9876
2.000000 46.255 52.2051
2.030000 46.551 51.3053
2.060000 46.845 50.4391
2.090000 47.137 49.5972
2.120000 47.426 48.7701
2.140000 47.616 48.2222
2.180000 47.992 47.1223
2.200000 48.177 46.5648
2.240000 48.543 45.4702
2.270000 48.814 44.6779
2.300000 49.083 43.9081
2.330000 49.350 43.1588
2.360000 49.614 42.4284
2.400000 49.961 41.4805
2.430000 50.218 40.7868
2.470000 50.557 39.8812
2.500000 50.807 39.2141
2.540000 51.136 38.3374
2.580000 51.460 37.4728
2.620000 51.777 36.6304
2.650000 52.012 36.0143
2.690000 52.320 35.2124
2.720000 52.547 34.6249
2.760000 52.846 33.8590
2.800000 53.141 33.1116
2.850000 53.502 32.2010
2.900000 53.855 31.3141
2.950000 54.202 30.4493
3.000000 54.541 29.6161
3.040000 54.806 28.9717
3.070000 55.002 28.4999
3.110000 55.258 27.8844
3.150000 55.511 27.2825
3.200000 55.821 26.5459
3.250000 56.126 25.8229
3.300000 56.426 25.1093
3.350000 56.720 24.4052
3.400000 57.007 23.7141
3.450000 57.288 23.0381
3.500000 57.564 22.3792
3.550000 57.835 21.7395
3.600000 58.103 21.1211
3.650000 58.367 20.5260
3.700000 58.628 19.9582
3.750000 58.884 19.4201
3.820000 59.236 18.7068
3.870000 59.483 18.2186
3.950000 59.871 17.4591
4.000000 60.112 16.9894
4.060000 60.398 16.4252
4.120000 60.680 15.8723
4.180000 60.958 15.3313
4.250000 61.278 14.7125
4.310000 61.549 14.1905
4.370000 61.818 13.6743
4.440000 62.128 13.0807
4.500000 62.391 12.5861
4.550000 62.608 12.1807
4.620000 62.908 11.6169
4.680000 63.161 11.1314
4.750000 63.453 10.5548
4.820000 63.740 9.9642
4.870000 63.943 9.5375
4.940000 64.223 8.9352
5.000000 64.459 8.4159
5.080000 64.768 7.7215
5.150000 65.032 7.1138
5.220000 65.290 6.5011
5.300000 65.579 5.7969
5.380000 65.861 5.0942
5.450000 66.101 4.4851
5.520000 66.336 3.8845
5.600000 66.598 3.1998
5.700000 66.914 2.3522
5.800000 67.221 1.5275
5.900000 67.519 0.7381
6.000000 67.807 -0.0230
6.080000 68.032 -0.6111
6.150000 68.225 -1.1085
6.220000 68.417 -1.5881
6.300000 68.633 -2.1112
6.400000 68.898 -2.7301
6.500000 69.160 -3.3210
6.600000 69.420 -3.8954
6.700000 69.680 -4.4456
6.800000 69.939 -4.9734
6.900000 70.196 -5.4968
7.000000 70.453 -6.0299
7.100000 70.711 -6.5602
7.200000 70.967 -7.0952
7.300000 71.221 -7.6491
7.400000 71.472 -8.2301
7.500000 71.721 -8.8312
7.620000 72.015 -9.5769
7.750000 72.323 -10.4157
7.880000 72.623 -11.2936
8.000000 72.890 -12.1186
8.120000 73.146 -12.9421
8.250000 73.412 -13.8465
8.380000 73.668 -14.7360
8.500000 73.895 -15.5228
8.620000 74.112 -16.2880
8.750000 74.341 -17.0789
8.850000 74.514 -17.6506
9.000000 74.767 -18.4531
9.120000 74.968 -19.0576
9.250000 75.187 -19.6765
9.380000 75.406 -20.2547
9.500000 75.610 -20.7789
9.620000 75.818 -21.3029
9.750000 76.045 -21.8618
9.880000 76.273 -22.4417
10.000000 76.484 -23.0059
10.150000 76.749 -23.7409
10.300000 77.008 -24.5235
10.440000 77.246 -25.3026
10.600000 77.510 -26.2298
10.750000 77.746 -27.1288
10.900000 77.971 -28.0512
11.060000 78.199 -29.0189
11.200000 78.387 -29.8594
11.380000 78.619 -30.8922
11.500000 78.766 -31.5429
11.720000 79.026 -32.6586
11.800000 79.120 -33.0335
12.060000 79.421 -34.1575
12.200000 79.586 -34.7191
12.410000 79.838 -35.5163
12.500000 79.947 -35.8617
12.650000 80.133 -36.4322
12.800000 80.320 -37.0190
13.150000 80.752 -38.5075
13.200000 80.811 -38.7322
13.400000 81.044 -39.6706
13.600000 81.263 -40.6260
13.800000 81.465 -41.5904
14.000000 81.652 -42.5007
14.300000 81.906 -43.7287
14.500000 82.067 -44.4049
14.750000 82.271 -45.1013
15.000000 82.487 -45.6502
15.250000 82.727 -46.1371
15.500000 82.988 -46.6693
15.750000 83.264 -47.3105
16.000000 83.544 -48.1408
16.250000 83.808 -49.1444
16.500000 84.048 -50.2843
16.750000 84.254 -51.4872
17.000000 84.427 -52.6318
17.250000 84.576 -53.6615
17.500000 84.708 -54.5088
17.750000 84.843 -55.1773
18.000000 84.989 -55.7149
18.250000 85.154 -56.1772
18.500000 85.338 -56.6758
18.750000 85.531 -57.2528
19.000000 85.727 -57.9471
19.250000 85.913 -58.7481
19.500000 86.085 -59.6086
19.750000 86.239 -60.4906
20.000000 86.379 -61.3297
20.299999 86.537 -62.2551
20.600000 86.692 -63.0903
20.900000 86.851 -63.8669
21.200001 87.016 -64.6373
21.400000 87.127 -65.1686
21.799999 87.343 -66.2737
22.000000 87.447 -66.8387
22.400000 87.643 -67.9557
22.700001 87.784 -68.7571
23.000000 87.923 -69.5234
23.299999 88.062 -70.2709
23.600000 88.201 -71.0157
24.000000 88.383 -72.0185
24.299999 88.515 -72.7731
24.700001 88.684 -73.7638
25.000000 88.808 -74.4868
25.400000 88.970 -75.4298
25.799999 89.129 -76.3693
26.200001 89.283 -77.3162
26.500000 89.392 -78.0224
26.900000 89.531 -78.9371
27.200001 89.631 -79.5912
27.600000 89.763 -80.4217
28.000000 89.897 -81.2270
28.500000 90.065 -82.2377
29.000000 90.229 -83.2669
29.500000 90.386 -84.2978
30.000000 90.538 -85.3200
30.400000 90.656 -86.1382
30.700001 90.742 -86.7549
31.100000 90.852 -87.5757
31.500000 90.956 -88.3820
32.000000 91.081 -89.3530
32.500000 91.203 -90.2852
33.000000 91.324 -91.1946
33.500000 91.442 -92.0862
34.000000 91.558 -92.9523
34.500000 91.673 -93.7960
35.000000 91.789 -94.6355
35.500000 91.900 -95.4803
36.000000 92.006 -96.3119
36.500000 92.109 -97.1073
37.000000 92.213 -97.8770
37.500000 92.318 -98.6613
38.200001 92.454 -99.8167
38.700001 92.537 -100.6321
39.500000 92.655 -101.7869
40.000000 92.733 -102.4353
40.599998 92.833 -103.2193
41.200001 92.930 -104.0446
41.799999 93.020 -104.8796
42.500000 93.117 -105.8261
43.099998 93.199 -106.6219
43.700001 93.277 -107.4135
44.400002 93.364 -108.3130
45.000000 93.437 -109.0496
45.500000 93.501 -109.6540
46.200001 93.590 -110.5186
46.799999 93.661 -111.2669
47.500000 93.738 -112.0857
48.200001 93.820 -112.8506
48.700001 93.883 -113.4191
49.400002 93.964 -114.2818
50.000000 94.017 -115.0138
50.799999 94.078 -115.8625
51.500000 94.137 -116.5282
52.200001 94.200 -117.2081
53.000000 94.266 -117.9964
53.799999 94.328 -118.7586
54.500000 94.382 -119.4146
55.200001 94.435 -120.0653
56.000000 94.496 -120.8015
57.000000 94.570 -121.7257
58.000000 94.641 -122.6443
59.000000 94.708 -123.5462
60.000000 94.770 -124.4209
60.799999 94.816 -125.0873
61.500000 94.856 -125.6500
62.200001 94.895 -126.1999
63.000000 94.939 -126.8211
64.000000 94.990 -127.6008
65.000000 95.036 -128.3718
66.000000 95.078 -129.1095
67.000000 95.121 -129.8242
68.000000 95.163 -130.5383
69.000000 95.203 -131.2409
70.000000 95.240 -131.9151
71.000000 95.277 -132.5682
72.000000 95.312 -133.1961
73.000000 95.347 -133.8129
74.000000 95.380 -134.4347
75.000000 95.409 -135.0438
76.199997 95.442 -135.7602
77.500000 95.474 -136.5223
78.800003 95.505 -137.2503
80.000000 95.534 -137.9098
81.199997 95.561 -138.5603
82.500000 95.587 -139.2349
83.800003 95.611 -139.8943
85.000000 95.630 -140.4882
86.199997 95.648 -141.0601
87.500000 95.668 -141.6755
88.500000 95.681 -142.1444
90.000000 95.699 -142.8247
91.199997 95.712 -143.3442
92.500000 95.727 -143.8981
93.800003 95.740 -144.4479
95.000000 95.749 -144.9368
96.199997 95.758 -145.4121
97.500000 95.769 -145.9252
98.800003 95.778 -146.4335
100.000000 95.784 -146.8874
101.500000 95.791 -147.4226
103.000000 95.798 -147.9426
104.400002 95.803 -148.4213
106.000000 95.804 -148.9576
107.500000 95.804 -149.4435
109.000000 95.804 -149.9162
110.599998 95.804 -150.4073
112.000000 95.803 -150.8264
113.800003 95.800 -151.3524
115.000000 95.797 -151.6945
117.199997 95.790 -152.2951
118.000000 95.787 -152.5040
120.599998 95.780 -153.1696
122.000000 95.774 -153.5264
124.099998 95.762 -154.0437
125.000000 95.756 -154.2584
126.500000 95.747 -154.6107
128.000000 95.737 -154.9562
131.500000 95.713 -155.7056
132.000000 95.710 -155.8069
134.000000 95.695 -156.2117
136.000000 95.678 -156.6072
138.000000 95.660 -156.9886
140.000000 95.641 -157.3543
143.000000 95.611 -157.8684
145.000000 95.592 -158.1985
147.500000 95.568 -158.5972
150.000000 95.544 -158.9816
152.500000 95.514 -159.3555
155.000000 95.484 -159.6936
157.500000 95.456 -160.0159
160.000000 95.425 -160.3378
162.500000 95.389 -160.6541
165.000000 95.354 -160.9431
167.500000 95.324 -161.2013
170.000000 95.295 -161.4426
172.500000 95.262 -161.6750
175.000000 95.227 -161.9026
177.500000 95.192 -162.1197
180.000000 95.157 -162.3245
182.500000 95.121 -162.5168
185.000000 95.086 -162.6948
187.500000 95.049 -162.8521
190.000000 95.014 -163.0010
192.500000 94.980 -163.1555
195.000000 94.945 -163.3038
197.500000 94.907 -163.4267
200.000000 94.868 -163.5299
203.000000 94.821 -163.6494
206.000000 94.775 -163.7546
209.000000 94.730 -163.8536
212.000000 94.684 -163.9537
214.000000 94.653 -164.0117
218.000000 94.593 -164.0961
220.000000 94.562 -164.1237
224.000000 94.501 -164.1684
227.000000 94.456 -164.1982
230.000000 94.409 -164.2180
233.000000 94.360 -164.2282
236.000000 94.313 -164.2242
240.000000 94.252 -164.1930
243.000000 94.206 -164.1594
247.000000 94.142 -164.1210
250.000000 94.094 -164.0866
254.000000 94.033 -164.0084
258.000000 93.972 -163.9227
262.000000 93.912 -163.8289
265.000000 93.867 -163.7406
269.000000 93.807 -163.6021
272.000000 93.760 -163.4883
276.000000 93.699 -163.3243
280.000000 93.637 -163.1497
285.000000 93.558 -162.9187
290.000000 93.483 -162.6765
295.000000 93.411 -162.4241
300.000000 93.339 -162.1507
304.000000 93.281 -161.9234
307.000000 93.236 -161.7500
311.000000 93.177 -161.5097
315.000000 93.119 -161.2590
320.000000 93.047 -160.9278
325.000000 92.977 -160.5769
330.000000 92.906 -160.2121
335.000000 92.835 -159.8371
340.000000 92.765 -159.4523
345.000000 92.697 -159.0571
350.000000 92.630 -158.6516
355.000000 92.562 -158.2281
360.000000 92.495 -157.7908
365.000000 92.429 -157.3483
370.000000 92.364 -156.8971
375.000000 92.299 -156.4363
382.000000 92.208 -155.7732
387.000000 92.145 -155.2849
395.000000 92.046 -154.4828
400.000000 91.985 -153.9741
406.000000 91.912 -153.3513
412.000000 91.842 -152.7098
418.000000 91.773 -152.0589
425.000000 91.691 -151.2985
431.000000 91.621 -150.6325
437.000000 91.553 -149.9613
444.000000 91.475 -149.1618
450.000000 91.409 -148.4621
455.000000 91.356 -147.8729
462.000000 91.283 -147.0410
468.000000 91.221 -146.3181
475.000000 91.150 -145.4727
482.000000 91.081 -144.6131
487.000000 91.032 -143.9890
494.000000 90.966 -143.1031
500.000000 90.910 -142.3360
508.000000 90.836 -141.3183
515.000000 90.773 -140.4215
522.000000 90.711 -139.5130
530.000000 90.642 -138.4691
538.000000 90.575 -137.4168
545.000000 90.516 -136.4873
552.000000 90.458 -135.5489
560.000000 90.394 -134.4603
570.000000 90.314 -133.0708
580.000000 90.238 -131.6611
590.000000 90.167 -130.2419
600.000000 90.099 -128.8192
608.000000 90.046 -127.6776
615.000000 90.001 -126.6737
622.000000 89.957 -125.6652
630.000000 89.908 -124.5066
640.000000 89.848 -123.0462
650.000000 89.792 -121.5713
660.000000 89.737 -120.0742
670.000000 89.686 -118.5660
680.000000 89.638 -117.0526
690.000000 89.594 -115.5344
700.000000 89.552 -114.0131
710.000000 89.514 -112.4776
720.000000 89.480 -110.9340
730.000000 89.448 -109.3891
740.000000 89.419 -107.8389
750.000000 89.391 -106.2803
762.000000 89.364 -104.4021
775.000000 89.340 -102.3648
788.000000 89.321 -100.3266
800.000000 89.309 -98.4405
812.000000 89.302 -96.5551
825.000000 89.300 -94.5165
838.000000 89.304 -92.4810
850.000000 89.312 -90.6091
862.000000 89.325 -88.7480
875.000000 89.344 -86.7456
885.000000 89.363 -85.2149
900.000000 89.396 -82.9378
912.000000 89.428 -81.1334
925.000000 89.467 -79.2012
938.000000 89.511 -77.2958
950.000000 89.556 -75.5631
962.000000 89.603 -73.8608
975.000000 89.657 -72.0514
988.000000 89.714 -70.2816
1000.000000 89.767 -68.6903
1015.000000 89.830 -66.7628
1030.000000 89.887 -64.8788
1044.000000 89.935 -63.1352
1060.000000 89.979 -61.1466
1075.000000 90.010 -59.2006
1090.000000 90.050 -57.1305
1106.000000 90.116 -54.8959
1120.000000 90.189 -53.0082
1138.000000 90.289 -50.6992
1150.000000 90.355 -49.2166
1172.000000 90.472 -46.5697
1180.000000 90.513 -45.6223
1206.000000 90.642 -42.5889
1220.000000 90.709 -40.9786
1241.000000 90.809 -38.5849
1250.000000 90.850 -37.5649
1265.000000 90.919 -35.8692
1280.000000 90.986 -34.1776
1315.000000 91.144 -30.2499
1320.000000 91.167 -29.6921
1340.000000 91.256 -27.4678
1360.000000 91.345 -25.2474
1380.000000 91.436 -23.0332
1400.000000 91.529 -20.8305
1430.000000 91.669 -17.5488
1450.000000 91.765 -15.3741
1475.000000 91.885 -12.6674
1500.000000 92.008 -9.9752
1525.000000 92.133 -7.3035
1550.000000 92.262 -4.6479
1575.000000 92.394 -2.0135
1600.000000 92.529 0.5979
1625.000000 92.668 3.1868
1650.000000 92.811 5.7492
1675.000000 92.957 8.2792
1700.000000 93.106 10.7754
1725.000000 93.257 13.2431
1750.000000 93.412 15.6785
1775.000000 93.569 18.0828
1800.000000 93.730 20.4556
1825.000000 93.894 22.7868
1850.000000 94.061 25.0772
1875.000000 94.231 27.3290
1900.000000 94.404 29.5375
1925.000000 94.579 31.6994
1950.000000 94.755 33.8147
1975.000000 94.933 35.8841
2000.000000 95.111 37.9134
2030.000000 95.329 40.3006
2060.000000 95.551 42.6234
2090.000000 95.778 44.8689
2120.000000 96.006 47.0260
2140.000000 96.157 48.4194
2180.000000 96.458 51.1392
2200.000000 96.612 52.4764
2240.000000 96.932 55.0845
2270.000000 97.188 56.9341
2300.000000 97.457 58.6494
2330.000000 97.740 60.2120
2360.000000 98.039 61.5545
2400.000000 98.453 62.8568
2430.000000 98.758 63.3682
2470.000000 99.118 63.3666
2500.000000 99.326 62.9022
2540.000000 99.482 61.8430
2580.000000 99.472 60.6638
2620.000000 99.307 59.9109
2650.000000 99.118 59.8366
2690.000000 98.826 60.4106
2720.000000 98.602 61.2754
2760.000000 98.318 62.8715
2800.000000 98.059 64.8407
2850.000000 97.778 67.6348
2900.000000 97.536 70.6448
2950.000000 97.328 73.7854
3000.000000 97.147 76.9866
3040.000000 97.018 79.5705
3070.000000 96.929 81.5159
3110.000000 96.818 84.1049
3150.000000 96.716 86.6739
3200.000000 96.593 89.8527
3250.000000 96.471 92.9995
3300.000000 96.343 96.1292
3350.000000 96.204 99.2867
3400.000000 96.051 102.5467
3450.000000 95.889 106.0106
3500.000000 95.733 109.7757
3550.000000 95.610 113.8818
3600.000000 95.555 118.2474
3650.000000 95.592 122.6598
3700.000000 95.725 126.8436
3750.000000 95.937 130.5401
3820.000000 96.299 134.5903
3870.000000 96.554 136.6223
3950.000000 96.875 138.5373
4000.000000 96.986 139.0664
4060.000000 97.003 139.2611
4120.000000 96.883 139.2447
4180.000000 96.630 139.2896
4250.000000 96.182 139.7279
4310.000000 95.694 140.6178
4370.000000 95.134 142.0762
4440.000000 94.421 144.5440
4500.000000 93.785 147.3033
4550.000000 93.251 150.0175
4620.000000 92.511 154.3737
4680.000000 91.890 158.5671
4750.000000 91.190 163.9312
4820.000000 90.522 169.7305
4870.000000 90.066 174.0995
4940.000000 89.455 -179.5056
5000.000000 88.952 -173.7795
5080.000000 88.302 -165.7219
5150.000000 87.764 -158.0144
5220.000000 87.348 -149.6789
5300.000000 87.082 -140.6733
5380.000000 86.810 -132.6983
5450.000000 86.499 -125.6391
5520.000000 86.181 -118.2104
5600.000000 85.851 -109.4173
5700.000000 85.499 -98.1756
5800.000000 85.206 -86.7582
5900.000000 84.970 -75.2194
6000.000000 84.785 -63.5846
6080.000000 84.672 -54.2210
6150.000000 84.598 -45.9917
6220.000000 84.547 -37.7373
6300.000000 84.517 -28.2832
6400.000000 84.521 -16.4430
6500.000000 84.570 -4.5911
6600.000000 84.661 7.2603
6700.000000 84.796 19.0949
6800.000000 84.976 30.8990
6900.000000 85.202 42.6536
7000.000000 85.474 54.3398
7100.000000 85.795 65.9308
7200.000000 86.167 77.3795
7300.000000 86.587 88.6511
7400.000000 87.056 99.7185
7500.000000 87.576 110.5539
7620.000000 88.274 123.1833
7750.000000 89.125 136.2700
7880.000000 90.076 148.5389
8000.000000 91.039 158.9066
8120.000000 92.070 168.0667
8250.000000 93.224 176.2227
8380.000000 94.333 -177.9271
8500.000000 95.199 -174.8547
8620.000000 95.780 -173.8884
8750.000000 95.965 -174.3909
8850.000000 95.761 -174.9881
9000.000000 94.959 -174.8214
9120.000000 93.985 -173.2957
9250.000000 92.678 -170.0416
9380.000000 91.187 -165.1025
9500.000000 89.699 -159.1614
9620.000000 88.125 -151.9808
9750.000000 86.347 -142.8304
9880.000000 84.539 -132.3717
10000.000000 82.882 -121.8959
10150.000000 80.799 -108.1707
10300.000000 78.557 -93.3469
10440.000000 76.187 -76.9567
10600.000000 73.154 -52.6042
10750.000000 70.257 -22.2988
10900.000000 68.067 15.1726
11060.000000 67.921 56.9849
11200.000000 69.109 86.5277
11380.000000 70.283 114.7622
11500.000000 70.801 132.1707
11720.000000 71.822 163.1741
11800.000000 72.202 173.5571
12060.000000 72.944 -155.7410
12200.000000 72.971 -138.5325
12410.000000 73.055 -109.6570
12500.000000 73.192 -96.6445
12650.000000 73.568 -74.4929
12800.000000 74.139 -51.9316
13150.000000 76.641 3.3367
13200.000000 77.312 11.7800
13400.000000 81.593 46.3466
13600.000000 87.691 76.2174
13800.000000 93.297 88.2760
14000.000000 96.801 73.8624
14300.000000 96.692 30.0294
14500.000000 93.715 17.7587
14750.000000 89.018 25.2838
15000.000000 85.028 44.6865
15250.000000 82.092 68.4967
15500.000000 79.868 94.4586
15750.000000 78.178 122.6726
16000.000000 77.358 151.5170
16250.000000 76.869 176.4875
16500.000000 76.112 -156.6973
16750.000000 76.181 -128.1007
17000.000000 77.215 -102.0964
17250.000000 78.709 -81.6597
17500.000000 80.057 -67.5732
17750.000000 80.973 -57.5900
18000.000000 81.603 -48.8854
18250.000000 82.302 -40.4543
18500.000000 83.335 -33.6482
18750.000000 84.514 -31.2375
19000.000000 85.458 -35.2522
19250.000000 85.534 -45.2761
19500.000000 84.138 -54.3220
19750.000000 81.842 -60.2377
